EEG 1,EEG 2,EEG 3,EEG 4,EEG 5,EEG 6,EEG 7,EEG 8,Accelerometer X,Accelerometer Y,Accelerometer Z,Gyroscope X,Gyroscope Y,Gyroscope Z,Battery Level,Counter,Validation Indicator
191651.375,190382.688,208567.531,201449.313,193264.016,184682.016,193402.141,183234.516,0.035,1.005,0.190,-2.197,0.031,-0.244,80.000,54625.000,1.000
191677.578,190402.891,208583.984,201467.719,193277.156,184684.781,193403.031,183252.484,0.035,1.002,0.191,-2.136,0.122,-0.244,80.000,54626.000,1.000
191679.266,190370.797,208552.422,201453.422,193264.641,184638.203,193369.328,183260.531,0.036,1.001,0.191,-2.136,0.000,-0.244,80.000,54627.000,1.000
191650.484,190342.906,208519.969,201424.359,193244.156,184608.516,193343.406,183234.063,0.037,1.002,0.190,-2.136,0.031,-0.183,80.000,54628.000,1.000
191634.563,190354.078,208532.047,201430.359,193242.281,184635.344,193350.375,183215.109,0.037,1.003,0.187,-2.106,0.061,-0.183,80.000,54629.000,1.000
191648.969,190385.734,208566.734,201457.891,193268.219,184697.031,193401.609,183239.969,0.037,1.003,0.189,-2.106,-0.061,-0.153,80.000,54630.000,1.000
191670.156,190404.063,208578.984,201469.875,193284.391,184719.203,193421.547,183267.234,0.035,1.003,0.191,-2.075,0.000,-0.153,80.000,54631.000,1.000
191674.531,190374.906,208549.922,201456.547,193270.531,184673.156,193383.375,183263.391,0.034,1.001,0.189,-1.953,-0.061,-0.214,80.000,54632.000,1.000
191649.594,190341.297,208519.516,201434.281,193248.813,184630.609,193352.078,183247.828,0.035,1.000,0.188,-1.923,-0.122,-0.122,80.000,54633.000,1.000
191624.281,190338.703,208521.219,201424.000,193240.313,184647.594,193370.844,183226.563,0.034,1.001,0.188,-1.801,-0.153,-0.092,80.000,54634.000,1.000
191637.969,190365.969,208551.078,201445.203,193258.016,184683.359,193406.531,183243.547,0.033,1.001,0.186,-1.831,-0.214,-0.122,80.000,54635.000,1.000
191663.984,190382.422,208565.125,201461.734,193272.859,184692.391,193419.125,183269.563,0.032,1.001,0.190,-1.770,-0.183,-0.244,80.000,54636.000,1.000
191669.609,190363.203,208538.484,201448.766,193261.781,184646.078,193380.500,183281.906,0.033,0.999,0.192,-1.617,-0.183,-0.275,80.000,54637.000,1.000
191645.922,190334.859,208507.813,201424.984,193241.125,184623.719,193350.641,183254.000,0.034,1.000,0.191,-1.587,-0.153,-0.305,80.000,54638.000,1.000
191627.859,190335.219,208517.281,201428.922,193236.391,184636.141,193356.719,183227.188,0.035,1.003,0.189,-1.587,-0.275,-0.366,80.000,54639.000,1.000
191643.781,190364.719,208552.781,201455.203,193256.141,184671.906,193390.703,183238.984,0.036,1.002,0.189,-1.678,-0.183,-0.305,80.000,54640.000,1.000
191665.141,190377.594,208566.906,201468.625,193269.828,184680.766,193403.219,183261.422,0.040,1.001,0.189,-1.709,-0.305,-0.366,80.000,54641.000,1.000
191681.500,190370.172,208554.219,201467.094,193276.609,184665.109,193390.344,183279.578,0.040,0.999,0.187,-1.678,-0.275,-0.427,80.000,54642.000,1.000
191655.938,190340.766,208523.375,201434.375,193253.906,184623.547,193365.219,183254.453,0.038,0.999,0.185,-1.587,-0.275,-0.397,80.000,54643.000,1.000
191640.563,190344.250,208531.766,201435.094,193242.906,184617.281,193349.656,183221.641,0.040,0.999,0.188,-1.587,-0.183,-0.458,80.000,54644.000,1.000
191657.094,190381.969,208566.641,201454.578,193262.766,184669.406,193381.219,183226.109,0.040,0.998,0.187,-1.434,-0.092,-0.427,80.000,54645.000,1.000
191679.094,190397.172,208580.500,201470.047,193276.609,184678.797,193396.063,183251.672,0.041,0.998,0.186,-1.312,0.000,-0.458,80.000,54646.000,1.000
191686.688,190379.109,208556.453,201457.266,193270.891,184644.016,193376.938,183262.141,0.039,0.998,0.186,-1.251,-0.031,-0.397,80.000,54647.000,1.000
191656.297,190344.250,208518.891,201423.922,193243.266,184606.016,193346.719,183232.375,0.038,0.998,0.186,-1.190,0.061,-0.336,80.000,54648.000,1.000
191642.438,190351.938,208531.594,201430.094,193240.141,184622.828,193345.109,183212.250,0.038,1.001,0.188,-1.221,0.153,-0.397,80.000,54649.000,1.000
191662.188,190390.469,208570.484,201460.391,193268.031,184685.141,193389.359,183232.375,0.036,1.001,0.188,-1.160,0.031,-0.427,80.000,54650.000,1.000
191686.156,190410.500,208585.781,201478.094,193286.813,184699.719,193415.469,183263.031,0.035,1.001,0.187,-1.038,0.092,-0.580,80.000,54651.000,1.000
191683.203,190382.250,208555.375,201460.844,193278.578,184669.500,193393.109,183272.953,0.036,1.004,0.188,-1.190,0.122,-0.580,80.000,54652.000,1.000
191646.453,190339.500,208513.984,201425.344,193249.969,184632.750,193355.922,183239.969,0.038,1.005,0.188,-1.282,0.183,-0.671,80.000,54653.000,1.000
191630.094,190346.656,208525.781,201436.250,193250.328,184653.313,193367.984,183229.594,0.037,1.005,0.187,-1.312,0.183,-0.702,80.000,54654.000,1.000
191641.453,190375.453,208557.078,201458.156,193272.063,184695.516,193408.141,183253.375,0.037,1.005,0.189,-1.343,0.153,-0.702,80.000,54655.000,1.000
191663.797,190393.594,208571.203,201469.688,193288.328,184717.859,193429.766,183275.188,0.035,1.004,0.188,-1.434,0.244,-0.580,80.000,54656.000,1.000
191666.578,190366.328,208543.031,201457.984,193276.344,184667.344,193395.078,183288.063,0.037,1.006,0.187,-1.465,0.214,-0.610,80.000,54657.000,1.000
191637.703,190325.563,208504.063,201420.250,193244.250,184620.766,193356.719,183255.172,0.037,1.007,0.185,-1.587,0.153,-0.610,80.000,54658.000,1.000
191628.578,190334.406,208517.563,201421.953,193242.641,184644.281,193368.078,183233.438,0.034,1.008,0.182,-1.617,0.183,-0.610,80.000,54659.000,1.000
191647.891,190362.938,208552.156,201449.047,193259.984,184675.031,193394.000,183244.797,0.033,1.009,0.184,-1.740,0.214,-0.732,80.000,54660.000,1.000
191670.781,190381.891,208567.359,201461.469,193271.156,184679.156,193396.781,183254.359,0.033,1.007,0.184,-1.831,0.122,-0.702,80.000,54661.000,1.000
191684.906,190373.656,208554.578,201462.188,193276.797,184661.531,193381.313,183276.453,0.031,1.005,0.184,-1.862,0.061,-0.763,80.000,54662.000,1.000
191648.875,190334.672,208513.438,201426.422,193245.953,184609.953,193342.328,183245.781,0.031,1.007,0.188,-1.984,0.000,-0.793,80.000,54663.000,1.000
191632.250,190342.547,208524.625,201425.703,193247.016,184635.156,193364.406,183229.328,0.030,1.006,0.189,-2.045,0.000,-0.793,80.000,54664.000,1.000
191648.875,190373.219,208560.656,201458.422,193268.922,184673.344,193392.672,183245.688,0.030,1.005,0.187,-2.045,-0.214,-0.824,80.000,54665.000,1.000
191669.703,190389.391,208573.609,201471.297,193283.859,184682.641,193407.953,183271.438,0.031,1.007,0.184,-2.106,-0.244,-1.007,80.000,54666.000,1.000
191672.391,190354.078,208540.625,201450.203,193267.500,184630.516,193379.797,183276.094,0.031,1.005,0.187,-2.136,-0.214,-1.007,80.000,54667.000,1.000
191649.313,190321.359,208507.094,201419.891,193237.188,184585.547,193332.859,183238.000,0.030,1.003,0.190,-2.197,-0.275,-0.946,80.000,54668.000,1.000
191639.484,190340.938,208526.406,201435.891,193245.953,184625.688,193352.703,183229.063,0.032,1.003,0.188,-2.136,-0.366,-0.854,80.000,54669.000,1.000
191653.875,190378.578,208561.641,201463.172,193270.094,184672.625,193394.281,183244.172,0.034,1.001,0.186,-2.167,-0.549,-0.854,80.000,54670.000,1.000
191669.797,190393.422,208570.031,201469.328,193278.500,184671.375,193400.359,183262.859,0.034,0.999,0.188,-2.136,-0.519,-0.732,80.000,54671.000,1.000
191672.391,190367.844,208541.875,201457.531,193271.609,184646.609,193380.234,183280.016,0.034,1.000,0.187,-2.045,-0.549,-0.641,80.000,54672.000,1.000
191644.406,190334.406,208511.484,201434.563,193253.281,184629.703,193369.781,183261.969,0.034,1.000,0.190,-1.923,-0.580,-0.549,80.000,54673.000,1.000
191621.875,190336.375,208517.281,201427.500,193246.578,184653.844,193380.500,183236.219,0.033,1.002,0.190,-1.892,-0.610,-0.458,80.000,54674.000,1.000
191636.000,190363.922,208545.625,201453.422,193256.953,184673.078,193381.578,183241.219,0.036,1.001,0.187,-1.862,-0.824,-0.366,80.000,54675.000,1.000
191662.906,190389.031,208567.625,201481.578,193285.641,184710.625,193423.328,183286.375,0.035,1.000,0.189,-1.862,-0.702,-0.183,80.000,54676.000,1.000
191654.781,190349.609,208527.297,201446.813,193264.453,184655.453,193394.719,183286.375,0.035,1.001,0.189,-2.014,-0.702,-0.153,80.000,54677.000,1.000
191628.750,190315.016,208492.969,201413.641,193236.469,184621.313,193347.516,183246.859,0.034,1.000,0.188,-1.892,-0.732,0.031,80.000,54678.000,1.000
191604.703,190317.063,208495.563,201404.516,193225.750,184628.641,193346.531,183215.297,0.034,0.999,0.188,-1.892,-0.702,0.061,80.000,54679.000,1.000
191619.094,190349.969,208530.703,201430.266,193247.016,184677.359,193383.375,183227.625,0.033,0.997,0.189,-1.801,-0.641,0.122,80.000,54680.000,1.000
191654.859,190378.406,208558.594,201458.344,193275.188,184703.828,193411.266,183263.297,0.033,0.997,0.190,-1.831,-0.763,0.092,80.000,54681.000,1.000
191663.891,190361.859,208539.188,201451.813,193275.188,184670.750,193400.359,183284.219,0.032,0.999,0.187,-1.892,-0.671,0.061,80.000,54682.000,1.000
191637.344,190326.719,208508.172,201425.344,193252.922,184631.938,193366.375,183263.125,0.032,1.000,0.187,-1.892,-0.610,0.092,80.000,54683.000,1.000
191627.422,190337.359,208522.828,201432.766,193250.859,184640.703,193359.766,183242.656,0.033,1.000,0.188,-1.770,-0.763,0.122,80.000,54684.000,1.000
191641.453,190367.219,208553.047,201452.797,193266.516,184669.766,193386.859,183245.063,0.035,0.999,0.187,-1.770,-0.732,0.000,80.000,54685.000,1.000
191667.203,190391.547,208572.188,201475.234,193290.391,184694.891,193418.234,183282.250,0.037,1.000,0.186,-1.770,-0.702,-0.031,80.000,54686.000,1.000
191675.516,190373.219,208549.750,201468.891,193287.078,184665.109,193397.859,183300.313,0.037,1.000,0.187,-1.740,-0.488,0.000,80.000,54687.000,1.000
191653.078,190344.156,208519.172,201437.422,193261.688,184620.328,193352.969,183254.891,0.037,0.998,0.188,-1.770,-0.519,-0.031,80.000,54688.000,1.000
191635.016,190349.156,208528.016,201431.422,193256.047,184635.703,193359.672,183228.250,0.036,1.000,0.191,-1.831,-0.488,-0.122,80.000,54689.000,1.000
191640.641,190370.891,208553.047,201447.344,193266.063,184664.578,193386.234,183236.391,0.037,1.001,0.189,-1.801,-0.366,-0.122,80.000,54690.000,1.000
191671.672,190396.734,208576.750,201472.734,193293.875,184698.547,193421.641,183272.953,0.039,1.000,0.188,-1.862,-0.275,-0.092,80.000,54691.000,1.000
191677.938,190375.359,208553.313,201462.906,193290.109,184675.313,193403.938,183283.328,0.038,1.000,0.186,-1.831,-0.305,-0.153,80.000,54692.000,1.000
191643.953,190331.469,208512.188,201430.266,193254.172,184612.188,193351.813,183252.031,0.038,1.003,0.187,-1.740,-0.244,-0.122,80.000,54693.000,1.000
191623.125,190338.250,208518.000,201428.922,193247.922,184630.875,193360.125,183227.000,0.038,1.001,0.188,-1.678,-0.183,-0.153,80.000,54694.000,1.000
191638.859,190374.641,208551.438,201455.656,193266.609,184672.453,193389.625,183241.047,0.039,1.001,0.189,-1.740,-0.122,-0.153,80.000,54695.000,1.000
191666.844,190395.031,208571.922,201476.484,193287.609,184704.000,193415.734,183276.625,0.039,1.003,0.192,-1.709,0.031,-0.153,80.000,54696.000,1.000
191665.953,190364.719,208538.922,201452.891,193271.703,184664.219,193387.125,183273.406,0.038,1.002,0.191,-1.617,0.153,-0.183,80.000,54697.000,1.000
191640.109,190334.672,208505.047,201426.156,193248.906,184625.781,193362.531,183244.609,0.040,1.003,0.187,-1.709,0.244,-0.122,80.000,54698.000,1.000
191619.813,190334.406,208510.844,201421.500,193240.938,184634.188,193355.563,183222.266,0.040,1.004,0.188,-1.770,0.244,-0.153,80.000,54699.000,1.000
191642.344,190376.797,208554.219,201461.469,193270.359,184688.625,193392.578,183241.938,0.039,1.004,0.188,-1.862,0.275,-0.031,80.000,54700.000,1.000
191676.141,190406.828,208579.609,201488.922,193297.094,184709.109,193414.656,183281.906,0.039,1.003,0.187,-1.801,0.458,0.031,80.000,54701.000,1.000
191667.109,190371.688,208539.188,201447.344,193276.609,184663.234,193390.344,183274.750,0.038,1.003,0.187,-1.801,0.519,0.031,80.000,54702.000,1.000
191640.203,190334.953,208507.625,201419.531,193253.109,184627.031,193357.625,183248.016,0.037,1.002,0.188,-1.678,0.549,-0.031,80.000,54703.000,1.000
191622.594,190335.656,208518.891,201420.078,193250.156,184646.781,193371.922,183231.734,0.037,1.002,0.185,-1.740,0.427,0.031,80.000,54704.000,1.000
191638.234,190364.359,208552.781,201445.203,193266.516,184678.250,193398.484,183239.344,0.036,1.002,0.187,-1.770,0.519,0.000,80.000,54705.000,1.000
191666.313,190385.906,208573.438,201467.719,193284.391,184690.328,193408.672,183267.688,0.037,1.001,0.187,-1.678,0.671,0.000,80.000,54706.000,1.000
191670.594,190367.047,208548.578,201453.953,193277.953,184663.328,193390.969,183279.750,0.035,1.002,0.188,-1.678,0.641,-0.031,80.000,54707.000,1.000
191643.422,190331.641,208511.922,201423.734,193249.078,184618.094,193355.203,183246.578,0.036,1.004,0.186,-1.587,0.702,0.061,80.000,54708.000,1.000
191628.578,190339.500,208520.156,201426.328,193242.375,184625.781,193354.313,183218.516,0.034,1.005,0.187,-1.617,0.610,-0.092,80.000,54709.000,1.000
191645.391,190372.953,208555.109,201454.219,193266.422,184679.422,193395.266,183234.953,0.033,1.004,0.186,-1.770,0.427,-0.061,80.000,54710.000,1.000
191681.422,190407.719,208585.234,201486.141,193298.703,184712.328,193422.438,183275.641,0.032,1.007,0.188,-1.770,0.488,-0.122,80.000,54711.000,1.000
191684.641,190386.797,208557.797,201472.109,193290.297,184671.375,193400.891,183291.563,0.033,1.006,0.189,-1.801,0.427,-0.244,80.000,54712.000,1.000
191651.203,190337.359,208514.422,201439.828,193251.047,184612.547,193340.188,183248.813,0.033,1.006,0.190,-1.831,0.366,-0.366,80.000,54713.000,1.000
191618.031,190324.047,208505.844,201415.156,193224.844,184605.844,193327.125,183194.734,0.035,1.003,0.187,-1.770,0.366,-0.397,80.000,54714.000,1.000
191631.438,190356.672,208538.750,201440.906,193248.094,184655.188,193373.984,183218.234,0.038,1.001,0.188,-1.831,0.244,-0.214,80.000,54715.000,1.000
191664.422,190382.875,208562.172,201468.703,193274.109,184681.125,193400.625,183256.594,0.037,1.000,0.185,-1.801,0.336,-0.153,80.000,54716.000,1.000
191667.203,190365.609,208534.984,201450.734,193265.797,184654.203,193373.094,183264.547,0.034,1.001,0.186,-1.617,0.275,-0.153,80.000,54717.000,1.000
191644.578,190342.281,208507.625,201425.438,193246.750,184628.813,193345.813,183241.750,0.031,0.998,0.186,-1.556,0.183,-0.214,80.000,54718.000,1.000
191636.000,190351.938,208526.234,201435.094,193246.938,184640.344,193355.109,183226.734,0.033,0.999,0.188,-1.495,0.153,-0.244,80.000,54719.000,1.000
191656.734,190381.531,208565.484,201472.203,193270.625,184677.984,193392.219,183251.500,0.030,0.999,0.188,-1.465,0.153,-0.153,80.000,54720.000,1.000
191681.500,190405.406,208583.453,201484.266,193292.266,184706.594,193423.875,183280.297,0.034,0.999,0.187,-1.465,0.031,-0.214,80.000,54721.000,1.000
191681.594,190373.484,208550.719,201462.188,193277.063,184660.828,193378.359,183277.422,0.034,1.002,0.185,-1.343,-0.031,-0.214,80.000,54722.000,1.000
191658.000,190340.406,208521.047,201438.766,193256.859,184621.578,193345.375,183251.594,0.034,1.001,0.183,-1.343,0.031,-0.183,80.000,54723.000,1.000
191641.813,190348.453,208532.391,201442.516,193256.406,184633.469,193367.625,183235.234,0.034,1.000,0.185,-1.312,0.092,-0.244,80.000,54724.000,1.000
191657.813,190382.875,208567.625,201470.594,193279.484,184678.250,193401.969,183249.891,0.034,1.000,0.184,-1.404,0.031,-0.275,80.000,54725.000,1.000
191677.656,190392.250,208578.797,201483.016,193293.328,184693.188,193412.156,183271.266,0.033,0.999,0.186,-1.343,0.031,-0.275,80.000,54726.000,1.000
191683.297,190371.422,208556.719,201474.703,193292.172,184666.813,193396.594,183294.953,0.033,1.000,0.182,-1.251,-0.092,-0.275,80.000,54727.000,1.000
191657.813,190342.375,208525.328,201443.766,193266.688,184628.641,193358.328,183254.891,0.033,1.002,0.185,-1.221,-0.153,-0.366,80.000,54728.000,1.000
191647.359,190354.891,208542.141,201448.500,193267.938,184652.594,193371.297,183231.203,0.034,1.003,0.188,-1.312,-0.183,-0.366,80.000,54729.000,1.000
191660.672,190384.656,208573.609,201475.141,193279.391,184673.609,193378.719,183237.469,0.032,1.004,0.184,-1.465,-0.244,-0.458,80.000,54730.000,1.000
191683.734,190401.203,208585.328,201485.703,193292.625,184684.516,193402.141,183261.422,0.034,1.005,0.184,-1.373,-0.397,-0.519,80.000,54731.000,1.000
191688.656,190381.438,208557.516,201469.250,193285.563,184653.313,193389.266,183278.141,0.033,1.005,0.184,-1.495,-0.458,-0.488,80.000,54732.000,1.000
191661.563,190353.641,208523.453,201437.063,193259.813,184624.172,193353.781,183250.609,0.032,1.005,0.182,-1.526,-0.488,-0.580,80.000,54733.000,1.000
191642.438,190356.313,208531.859,201439.203,193256.234,184644.813,193371.922,183231.656,0.035,1.004,0.183,-1.526,-0.458,-0.458,80.000,54734.000,1.000
191649.047,190375.094,208557.797,201461.203,193269.469,184680.313,193404.297,183244.266,0.034,1.005,0.186,-1.556,-0.488,-0.458,80.000,54735.000,1.000
191669.438,190384.656,208568.609,201472.734,193280.641,184697.391,193408.766,183263.031,0.035,1.006,0.185,-1.648,-0.458,-0.488,80.000,54736.000,1.000
191682.313,190370.531,208551.438,201468.078,193281.797,184674.766,193389.000,183283.328,0.035,1.004,0.186,-1.801,-0.488,-0.488,80.000,54737.000,1.000
191650.391,190329.500,208511.203,201432.953,193248.453,184618.359,193345.813,183249.625,0.038,1.005,0.187,-1.862,-0.549,-0.427,80.000,54738.000,1.000
191647.078,190347.375,208533.109,201446.813,193255.781,184645.266,193364.406,183236.922,0.036,1.004,0.185,-1.984,-0.610,-0.427,80.000,54739.000,1.000
191660.234,190385.547,208569.328,201473.188,193279.828,184697.844,193406.078,183257.219,0.035,1.004,0.185,-2.014,-0.610,-0.397,80.000,54740.000,1.000
191682.484,190409.063,208586.047,201487.313,193296.641,184709.188,193412.516,183281.000,0.038,1.004,0.185,-2.106,-0.641,-0.305,80.000,54741.000,1.000
191683.109,190387.344,208556.531,201466.297,193286.188,184678.969,193387.219,183281.719,0.035,1.004,0.185,-2.289,-0.580,-0.244,80.000,54742.000,1.000
191661.125,190346.656,208527.922,201444.750,193265.625,184633.281,193358.063,183262.234,0.036,1.005,0.186,-2.228,-0.549,-0.275,80.000,54743.000,1.000
191639.219,190346.125,208532.391,201434.563,193255.250,184629.172,193359.234,183232.375,0.037,1.004,0.183,-2.197,-0.549,-0.305,80.000,54744.000,1.000
191642.875,190366.328,208554.656,201448.766,193265.172,184659.922,193386.500,183238.531,0.036,1.003,0.184,-2.350,-0.488,-0.305,80.000,54745.000,1.000
191667.641,190390.922,208572.625,201466.469,193285.734,184689.875,193412.156,183267.766,0.040,1.002,0.185,-2.380,-0.397,-0.397,80.000,54746.000,1.000
191679.094,190378.313,208552.328,201460.219,193283.328,184666.906,193386.313,183281.906,0.039,1.002,0.185,-2.380,-0.366,-0.397,80.000,54747.000,1.000
191649.500,190339.422,208514.344,201433.938,193256.234,184617.188,193355.469,183262.047,0.037,1.003,0.184,-2.411,-0.305,-0.153,80.000,54748.000,1.000
191629.828,190334.766,208518.813,201430.531,193244.156,184618.172,193348.500,183226.016,0.038,1.002,0.186,-2.380,-0.275,-0.214,80.000,54749.000,1.000
191650.297,190373.219,208561.188,201467.719,193273.938,184673.422,193390.703,183245.688,0.038,1.002,0.188,-2.533,-0.275,-0.275,80.000,54750.000,1.000
191677.391,190399.328,208584.969,201490.703,193302.016,184707.219,193421.719,183284.219,0.037,1.002,0.187,-2.502,-0.244,-0.305,80.000,54751.000,1.000
191684.375,190386.453,208561.906,201474.078,193298.609,184685.672,193405.906,183296.828,0.038,1.001,0.188,-2.502,-0.214,-0.305,80.000,54752.000,1.000
191651.734,190346.922,208518.813,201434.828,193263.563,184632.219,193359.938,183258.469,0.036,1.000,0.188,-2.472,-0.336,-0.366,80.000,54753.000,1.000
191625.719,190339.063,208518.453,201425.172,193250.328,184629.797,193357.984,183223.156,0.036,1.001,0.189,-2.441,-0.336,-0.458,80.000,54754.000,1.000
191633.500,190362.484,208546.531,201455.297,193268.297,184673.156,193389.625,183241.750,0.038,1.001,0.191,-2.380,-0.244,-0.519,80.000,54755.000,1.000
191660.141,190389.125,208565.656,201475.688,193290.828,184701.328,193418.500,183273.672,0.038,1.001,0.190,-2.380,-0.275,-0.458,80.000,54756.000,1.000
191662.828,190370.531,208536.328,201455.828,193280.188,184663.953,193391.063,183279.750,0.036,1.000,0.185,-2.441,-0.305,-0.488,80.000,54757.000,1.000
191631.891,190330.297,208495.563,201419.531,193245.953,184609.953,193337.500,183244.344,0.037,1.000,0.188,-2.350,-0.305,-0.610,80.000,54758.000,1.000
191617.578,190334.328,208509.781,201427.047,193245.063,184632.484,193355.031,183227.000,0.037,1.001,0.186,-2.441,-0.244,-0.519,80.000,54759.000,1.000
191633.313,190360.875,208545.188,201453.781,193264.188,184672.172,193394.281,183240.859,0.036,1.002,0.186,-2.319,-0.153,-0.580,80.000,54760.000,1.000
191661.391,190384.922,208561.813,201465.141,193280.453,184695.063,193408.578,183264.203,0.036,1.003,0.186,-2.380,-0.122,-0.671,80.000,54761.000,1.000
191681.234,190375.625,208549.203,201469.063,193286.188,184669.578,193392.578,183291.375,0.038,1.002,0.187,-2.380,-0.153,-0.610,80.000,54762.000,1.000
191641.266,190330.563,208504.594,201427.578,193250.781,184614.781,193343.844,183254.813,0.037,1.001,0.189,-2.380,-0.244,-0.702,80.000,54763.000,1.000
191627.766,190343.531,208518.547,201428.297,193252.203,184646.250,193361.906,183232.906,0.035,1.002,0.188,-2.289,-0.244,-0.763,80.000,54764.000,1.000
191643.953,190377.234,208552.328,201455.750,193274.563,184684.609,193398.031,183247.031,0.035,1.000,0.187,-2.228,-0.214,-0.793,80.000,54765.000,1.000
191673.109,190402.719,208575.141,201478.094,193299.953,184705.078,193424.672,183282.875,0.034,1.002,0.189,-2.258,-0.153,-0.671,80.000,54766.000,1.000
191680.438,190383.672,208551.531,201464.594,193295.125,184676.922,193399.547,183290.219,0.036,1.004,0.190,-2.258,-0.183,-0.763,80.000,54767.000,1.000
191649.672,190344.688,208513.891,201430.719,193268.125,184642.672,193361.016,183260.078,0.034,1.003,0.193,-2.319,-0.214,-0.671,80.000,54768.000,1.000
191633.234,190354.797,208526.859,201434.469,193268.484,184673.516,193380.063,183237.109,0.035,1.003,0.188,-2.319,-0.275,-0.671,80.000,54769.000,1.000
191649.500,190381.969,208559.047,201461.469,193280.641,184685.234,193398.125,183247.750,0.035,1.002,0.187,-2.258,-0.244,-0.671,80.000,54770.000,1.000
191668.719,190393.156,208569.594,201472.016,193292.000,184692.031,193413.594,183273.938,0.034,1.001,0.188,-2.197,-0.244,-0.671,80.000,54771.000,1.000
191672.828,190368.828,208542.688,201455.031,193285.734,184665.203,193397.406,183286.016,0.033,1.004,0.190,-2.106,-0.214,-0.580,80.000,54772.000,1.000
191645.750,190333.609,208509.234,201427.938,193261.422,184628.188,193364.594,183259.375,0.032,1.004,0.191,-2.136,-0.397,-0.641,80.000,54773.000,1.000
191624.203,190330.828,208515.047,201422.391,193250.781,184629.000,193362.094,183232.547,0.033,1.004,0.190,-2.289,-0.397,-0.671,80.000,54774.000,1.000
191639.219,190364.547,208550.094,201451.188,193268.219,184662.250,193384.266,183244.344,0.035,1.004,0.191,-2.258,-0.519,-0.580,80.000,54775.000,1.000
191672.031,190397.172,208575.406,201478.813,193293.250,184692.563,193412.875,183276.625,0.034,1.005,0.190,-2.258,-0.458,-0.458,80.000,54776.000,1.000
191678.109,190378.219,208548.672,201468.438,193283.859,184660.563,193388.016,183286.813,0.033,1.004,0.188,-2.319,-0.488,-0.519,80.000,54777.000,1.000
191647.984,190342.453,208512.453,201436.516,193257.125,184626.844,193353.328,183259.547,0.034,1.005,0.189,-2.319,-0.458,-0.519,80.000,54778.000,1.000
191630.719,190341.297,208519.969,201435.547,193252.203,184642.047,193362.531,183235.594,0.032,1.003,0.189,-2.350,-0.519,-0.427,80.000,54779.000,1.000
191643.594,190369.453,208551.078,201459.688,193268.922,184675.313,193396.953,183246.938,0.032,1.004,0.191,-2.319,-0.427,-0.336,80.000,54780.000,1.000
191667.297,190391.984,208566.734,201472.203,193288.156,184703.734,193420.563,183276.891,0.032,1.003,0.192,-2.380,-0.458,-0.336,80.000,54781.000,1.000
191671.938,190378.125,208542.328,201456.734,193287.344,184689.797,193412.063,183295.313,0.034,1.004,0.190,-2.319,-0.519,-0.275,80.000,54782.000,1.000
191643.234,190346.656,208505.750,201424.625,193259.266,184640.891,193370.406,183263.125,0.035,1.001,0.192,-2.289,-0.671,-0.244,80.000,54783.000,1.000
191627.234,190351.219,208514.969,201427.219,193250.063,184635.875,193353.594,183230.938,0.034,1.003,0.192,-2.228,-0.610,-0.275,80.000,54784.000,1.000
191641.266,190381.344,208551.266,201457.266,193274.109,184677.984,193404.016,183255.172,0.035,1.003,0.191,-2.167,-0.519,-0.244,80.000,54785.000,1.000
191669.438,190403.797,208573.078,201474.969,193296.281,184703.656,193430.578,183289.141,0.035,1.004,0.192,-2.167,-0.549,-0.244,80.000,54786.000,1.000
191675.250,190376.078,208545.453,201457.891,193283.766,184672.172,193398.125,183287.078,0.036,1.003,0.190,-2.289,-0.580,-0.183,80.000,54787.000,1.000
191655.484,190343.266,208514.875,201431.422,193258.016,184630.422,193353.234,183254.453,0.037,1.000,0.191,-2.197,-0.580,-0.153,80.000,54788.000,1.000
191631.891,190343.797,208519.344,201424.188,193249.891,184644.016,193360.563,183229.328,0.035,0.999,0.188,-2.106,-0.519,-0.092,80.000,54789.000,1.000
191647.172,190378.125,208554.656,201449.844,193270.891,184686.484,193401.422,183243.281,0.036,1.000,0.188,-2.136,-0.427,-0.061,80.000,54790.000,1.000
191675.969,190405.766,208576.031,201475.063,193293.516,184703.375,193419.844,183277.078,0.037,1.000,0.190,-2.045,-0.519,-0.153,80.000,54791.000,1.000
191682.578,190378.219,208549.922,201460.938,193288.422,184667.078,193400.172,183292.813,0.038,0.998,0.191,-1.953,-0.397,-0.183,80.000,54792.000,1.000
191650.844,190338.797,208509.875,201422.672,193259.719,184626.219,193361.375,183260.000,0.036,0.998,0.190,-1.862,-0.397,-0.183,80.000,54793.000,1.000
191632.422,190345.500,208519.797,201425.438,193258.906,184650.359,193377.469,183243.453,0.037,0.998,0.192,-1.770,-0.214,-0.183,80.000,54794.000,1.000
191648.875,190380.188,208556.453,201453.422,193276.969,184692.563,193399.734,183247.922,0.037,0.998,0.188,-1.740,-0.244,-0.244,80.000,54795.000,1.000
191676.766,190403.250,208575.219,201473.094,193295.656,184706.156,193424.313,183274.750,0.037,1.000,0.190,-1.740,-0.153,-0.336,80.000,54796.000,1.000
191680.516,190375.984,208543.656,201454.578,193278.141,184649.734,193377.828,183277.703,0.038,1.000,0.192,-1.709,-0.183,-0.244,80.000,54797.000,1.000
191662.734,190347.375,208518.719,201437.594,193260.172,184619.516,193349.219,183256.953,0.036,1.001,0.193,-1.617,-0.122,-0.214,80.000,54798.000,1.000
191643.328,190353.281,208527.219,201435.891,193256.594,184644.188,193366.469,183235.406,0.035,1.001,0.190,-1.709,-0.122,-0.214,80.000,54799.000,1.000
191648.688,190376.078,208551.531,201448.766,193267.672,184673.781,193393.828,183244.797,0.036,1.002,0.190,-1.678,-0.031,-0.244,80.000,54800.000,1.000
191671.047,190390.016,208563.594,201463.344,193281.984,184687.734,193409.469,183271.438,0.036,1.002,0.192,-1.587,-0.031,-0.275,80.000,54801.000,1.000
191678.109,190373.484,208539.906,201456.906,193278.141,184661.984,193389.625,183284.766,0.035,1.003,0.190,-1.556,0.061,-0.305,80.000,54802.000,1.000
191653.344,190343.984,208508.344,201428.922,193257.578,184628.375,193368.438,183260.797,0.036,1.003,0.190,-1.648,0.122,-0.214,80.000,54803.000,1.000
191632.063,190339.859,208514.156,201420.438,193248.000,184640.703,193365.938,183229.234,0.036,1.005,0.189,-1.709,0.122,-0.305,80.000,54804.000,1.000
191653.875,190377.234,208554.484,201455.203,193270.094,184671.281,193391.766,183245.875,0.036,1.004,0.191,-1.770,0.122,-0.397,80.000,54805.000,1.000
191687.766,190408.703,208581.297,201484.359,193299.766,184705.344,193433.438,183284.844,0.036,1.004,0.194,-1.770,0.092,-0.305,80.000,54806.000,1.000
191698.047,190391.906,208559.484,201472.906,193297.266,184678.969,193412.875,183298.797,0.036,1.005,0.192,-1.862,0.122,-0.275,80.000,54807.000,1.000
191670.594,190351.313,208521.484,201438.047,193265.172,184625.688,193359.594,183265.453,0.037,1.006,0.191,-1.892,0.092,-0.214,80.000,54808.000,1.000
191651.281,190356.047,208529.000,201438.766,193260.172,184638.031,193364.594,183247.031,0.036,1.006,0.191,-2.014,0.305,-0.092,80.000,54809.000,1.000
191658.438,190382.875,208553.938,201454.141,193271.875,184672.453,193393.031,183243.094,0.034,1.006,0.192,-1.984,0.305,-0.153,80.000,54810.000,1.000
191684.906,190412.109,208574.953,201477.375,193293.328,184694.078,193418.859,183269.828,0.034,1.008,0.190,-2.014,0.305,-0.153,80.000,54811.000,1.000
191692.234,190388.063,208552.969,201472.641,193292.797,184670.203,193400.797,183293.609,0.036,1.006,0.191,-2.228,0.122,-0.061,80.000,54812.000,1.000
191651.109,190340.219,208506.109,201427.047,193258.641,184629.359,193363.156,183261.875,0.034,1.005,0.193,-2.228,0.183,-0.061,80.000,54813.000,1.000
191625.266,190333.703,208503.969,201413.453,193240.500,184627.109,193356.813,183222.719,0.033,1.004,0.193,-2.411,0.214,-0.031,80.000,54814.000,1.000
191645.297,190367.672,208541.078,201445.641,193262.672,184673.422,193396.328,183237.016,0.035,1.005,0.190,-2.441,0.183,-0.031,80.000,54815.000,1.000
191673.016,190396.281,208562.172,201469.422,193285.641,184699.359,193416.000,183274.297,0.035,1.005,0.189,-2.289,0.244,0.061,80.000,54816.000,1.000
191678.828,190380.813,208539.641,201456.016,193282.063,184670.391,193396.688,183288.422,0.034,1.003,0.190,-2.319,0.092,0.000,80.000,54817.000,1.000
191653.078,190344.875,208507.453,201429.547,193257.578,184628.453,193360.484,183261.422,0.035,1.004,0.191,-2.289,0.092,0.061,80.000,54818.000,1.000
191626.344,190340.578,208507.625,201414.172,193245.063,184636.953,193368.344,183237.203,0.037,1.003,0.192,-2.167,0.092,-0.061,80.000,54819.000,1.000
191644.578,190370.984,208544.828,201440.906,193263.656,184671.641,193399.188,183244.172,0.037,1.000,0.191,-2.167,0.092,0.092,80.000,54820.000,1.000
191683.734,190405.047,208574.328,201470.234,193289.406,184691.313,193413.672,183279.750,0.035,0.997,0.193,-2.136,0.031,0.122,80.000,54821.000,1.000
191689.375,190394.578,208550.281,201455.922,193284.391,184668.250,193393.469,183291.563,0.034,0.999,0.191,-2.075,-0.031,0.153,80.000,54822.000,1.000
191664.516,190358.547,208516.297,201428.391,193257.938,184629.000,193355.563,183259.375,0.033,0.999,0.191,-1.984,-0.092,0.092,80.000,54823.000,1.000
191662.016,190367.484,208539.016,201452.078,193267.406,184647.141,193377.281,183254.547,0.035,0.998,0.190,-1.923,-0.092,-0.092,80.000,54824.000,1.000
191661.922,190382.328,208560.922,201468.703,193277.250,184674.766,193402.500,183259.813,0.034,0.997,0.191,-1.801,-0.122,-0.122,80.000,54825.000,1.000
191685.625,190403.703,208577.016,201478.547,193292.438,184688.719,193409.469,183278.766,0.034,0.999,0.190,-1.801,-0.244,-0.031,80.000,54826.000,1.000
191693.578,190386.625,208554.219,201464.953,193289.047,184665.391,193390.516,183287.531,0.035,0.997,0.191,-1.648,-0.214,-0.183,80.000,54827.000,1.000
191668.984,190353.984,208523.375,201440.094,193268.484,184629.359,193363.250,183264.828,0.037,0.999,0.192,-1.556,-0.244,-0.275,80.000,54828.000,1.000
191654.688,190360.516,208536.781,201441.344,193267.313,184648.313,193377.375,183244.266,0.035,0.998,0.193,-1.495,-0.214,-0.366,80.000,54829.000,1.000
191665.500,190385.109,208566.734,201461.734,193280.734,184672.359,193405.188,183251.766,0.036,0.998,0.192,-1.495,-0.275,-0.336,80.000,54830.000,1.000
191695.625,190413.891,208590.156,201483.734,193303.969,184694.344,193424.234,183284.406,0.036,1.001,0.191,-1.495,-0.305,-0.366,80.000,54831.000,1.000
191701.531,190397.359,208566.188,201470.234,193297.984,184667.969,193402.141,183298.891,0.038,1.002,0.190,-1.373,-0.397,-0.397,80.000,54832.000,1.000
191669.250,190356.578,208525.875,201436.703,193268.750,184625.500,193365.844,183270.359,0.039,1.002,0.189,-1.221,-0.244,-0.397,80.000,54833.000,1.000
191648.156,190357.391,208530.703,201438.484,193262.313,184641.953,193368.969,183245.156,0.038,1.003,0.188,-1.190,-0.366,-0.336,80.000,54834.000,1.000
191653.078,190377.781,208554.922,201456.641,193275.719,184680.578,193396.953,183248.109,0.039,1.000,0.189,-1.251,-0.305,-0.397,80.000,54835.000,1.000
191681.859,190405.484,208577.453,201482.656,193299.688,184694.266,193419.750,183280.109,0.039,1.000,0.188,-1.221,-0.305,-0.397,80.000,54836.000,1.000
191689.109,190388.500,208555.281,201474.250,193295.922,184669.141,193396.328,183292.719,0.037,1.000,0.189,-1.190,-0.275,-0.427,80.000,54837.000,1.000
191653.250,190343.797,208511.297,201431.156,193262.766,184623.453,193361.203,183259.547,0.034,1.001,0.187,-1.251,-0.183,-0.427,80.000,54838.000,1.000
191632.953,190341.563,208515.672,201425.969,193253.016,184634.266,193368.344,183235.047,0.034,1.000,0.189,-1.221,-0.214,-0.427,80.000,54839.000,1.000
191652.719,190377.500,208552.875,201455.297,193271.875,184675.219,193399.375,183248.375,0.036,1.000,0.187,-1.190,-0.122,-0.549,80.000,54840.000,1.000
191672.828,190390.641,208561.719,201461.297,193275.906,184674.234,193398.922,183263.844,0.035,1.002,0.190,-1.099,-0.183,-0.549,80.000,54841.000,1.000
191684.719,190379.391,208541.609,201451.188,193274.297,184650.906,193384.078,183282.969,0.035,1.003,0.189,-1.129,-0.275,-0.549,80.000,54842.000,1.000
191666.844,190349.969,208514.156,201432.766,193256.406,184615.047,193351.453,183266.344,0.035,1.004,0.186,-1.099,-0.244,-0.610,80.000,54843.000,1.000
191651.563,190357.031,208525.953,201438.406,193257.125,184644.906,193366.563,183242.656,0.037,1.003,0.189,-1.190,-0.275,-0.519,80.000,54844.000,1.000
191661.844,190386.719,208558.688,201464.156,193274.734,184679.781,193395.609,183252.656,0.036,1.005,0.186,-1.282,-0.336,-0.641,80.000,54845.000,1.000
191684.188,190405.047,208574.328,201474.516,193288.063,184683.359,193405.000,183270.453,0.037,1.006,0.188,-1.434,-0.275,-0.610,80.000,54846.000,1.000
191688.031,190384.391,208548.484,201459.047,193282.516,184651.609,193387.578,183283.422,0.037,1.006,0.190,-1.465,-0.305,-0.549,80.000,54847.000,1.000
191677.938,190369.813,208530.875,201450.031,193276.531,184638.297,193379.531,183275.281,0.037,1.009,0.191,-1.495,-0.336,-0.488,80.000,54848.000,1.000
191657.641,190367.047,208536.063,201444.750,193269.375,184657.969,193387.125,183248.469,0.034,1.010,0.190,-1.678,-0.366,-0.549,80.000,54849.000,1.000
191662.906,190381.266,208558.859,201458.250,193277.781,184679.594,193404.203,183254.000,0.033,1.011,0.191,-1.770,-0.397,-0.641,80.000,54850.000,1.000
191686.609,190402.813,208574.781,201475.422,193294.234,184694.703,193416.453,183283.063,0.033,1.010,0.188,-1.984,-0.305,-0.671,80.000,54851.000,1.000
191689.547,190382.609,208546.875,201458.969,193284.844,184664.844,193390.438,183289.047,0.032,1.009,0.188,-2.167,-0.427,-0.702,80.000,54852.000,1.000
191661.219,190338.438,208507.719,201429.641,193254.797,184614.875,193355.563,183256.063,0.032,1.010,0.191,-2.197,-0.488,-0.763,80.000,54853.000,1.000
191647.797,190341.469,208518.000,201435.266,193254.000,184643.656,193370.844,183241.219,0.034,1.007,0.188,-2.197,-0.488,-0.793,80.000,54854.000,1.000
191649.047,190363.469,208537.859,201443.234,193259.891,184671.281,193389.891,183236.391,0.031,1.004,0.188,-2.319,-0.610,-0.885,80.000,54855.000,1.000
191677.297,190390.016,208557.969,201462.188,193278.672,184675.844,193407.328,183265.359,0.031,1.001,0.188,-2.319,-0.580,-0.854,80.000,54856.000,1.000
191688.844,190375.094,208537.672,201456.641,193277.422,184640.438,193383.547,183283.063,0.033,1.000,0.186,-2.350,-0.671,-0.793,80.000,54857.000,1.000
191649.766,190334.766,208493.141,201413.813,193243.719,184608.516,193340.984,183242.656,0.035,0.999,0.191,-2.350,-0.763,-0.702,80.000,54858.000,1.000
191627.859,190334.406,208499.406,201414.625,193237.453,184613.891,193353.594,183224.500,0.035,0.999,0.192,-2.197,-0.793,-0.763,80.000,54859.000,1.000
191639.391,190363.297,208534.453,201443.672,193259.094,184653.141,193389.359,183243.000,0.036,1.000,0.191,-2.136,-0.732,-0.671,80.000,54860.000,1.000
191676.859,190401.016,208565.844,201476.484,193289.766,184691.484,193419.313,183281.359,0.035,1.001,0.191,-2.167,-0.732,-0.641,80.000,54861.000,1.000
191676.953,190370.359,208531.500,201450.734,193270.359,184646.250,193374.250,183275.281,0.036,0.999,0.189,-2.167,-0.824,-0.458,80.000,54862.000,1.000
191651.375,190333.250,208500.391,201426.234,193248.984,184611.734,193347.781,183251.766,0.037,1.001,0.187,-2.197,-0.702,-0.427,80.000,54863.000,1.000
191633.406,190341.203,208511.031,201429.734,193248.625,184636.953,193362.359,183230.313,0.037,0.999,0.188,-2.106,-0.702,-0.214,80.000,54864.000,1.000
191651.734,190381.891,208550.813,201464.688,193277.594,184692.563,193398.484,183254.547,0.037,0.998,0.187,-2.106,-0.732,-0.244,80.000,54865.000,1.000
191664.969,190386.266,208555.109,201466.922,193285.828,184696.766,193418.688,183275.375,0.037,0.999,0.185,-1.953,-0.763,-0.122,80.000,54866.000,1.000
191662.547,190360.422,208522.469,201445.203,193271.781,184651.703,193386.672,183279.672,0.036,0.999,0.189,-1.953,-0.824,-0.122,80.000,54867.000,1.000
191638.859,190330.750,208492.516,201420.969,193252.828,184614.688,193359.406,183264.547,0.036,0.999,0.189,-1.953,-0.763,-0.031,80.000,54868.000,1.000
191626.797,190344.422,208507.625,201424.625,193253.281,184641.594,193369.594,183239.516,0.034,1.000,0.187,-2.014,-0.763,0.000,80.000,54869.000,1.000
191641.266,190379.203,208542.688,201446.359,193268.297,184676.734,193394.000,183236.391,0.034,0.999,0.190,-2.045,-0.702,0.031,80.000,54870.000,1.000
191676.234,190400.750,208568.078,201471.844,193290.922,184701.328,193418.953,183270.719,0.034,0.997,0.193,-2.045,-0.702,0.000,80.000,54871.000,1.000
191677.484,190371.156,208536.063,201447.875,193277.250,184661.891,193388.281,183277.422,0.036,1.002,0.191,-1.984,-0.641,-0.031,80.000,54872.000,1.000
191646.375,190334.594,208497.625,201413.094,193247.922,184619.703,193358.609,183245.688,0.037,1.000,0.192,-1.923,-0.610,0.061,80.000,54873.000,1.000
191639.313,190345.594,208517.906,201429.734,193255.969,184653.219,193388.641,183243.359,0.035,0.999,0.190,-1.892,-0.580,0.000,80.000,54874.000,1.000
191645.297,190369.453,208544.109,201448.766,193265.531,184678.969,193408.844,183252.031,0.035,0.999,0.191,-1.984,-0.610,-0.061,80.000,54875.000,1.000
191675.516,190396.109,208562.266,201465.047,193279.828,184683.438,193402.594,183264.203,0.037,1.000,0.191,-2.045,-0.519,-0.244,80.000,54876.000,1.000
191672.297,190366.156,208529.266,201444.563,193266.422,184638.203,193372.906,183265.891,0.038,1.001,0.191,-2.136,-0.397,-0.305,80.000,54877.000,1.000
191638.953,190322.438,208489.922,201409.438,193239.609,184597.797,193346.984,183244.797,0.037,1.001,0.188,-2.045,-0.427,-0.244,80.000,54878.000,1.000
191628.313,190332.359,208505.219,201416.406,193240.938,184619.703,193359.313,183229.328,0.036,1.001,0.187,-2.014,-0.397,-0.275,80.000,54879.000,1.000
191644.766,190368.391,208543.656,201447.609,193266.688,184670.391,193401.875,183249.797,0.038,1.000,0.188,-1.923,-0.336,-0.305,80.000,54880.000,1.000
191668.453,190392.344,208561.281,201465.578,193287.078,184693.375,193421.641,183276.891,0.037,1.002,0.188,-2.014,-0.275,-0.336,80.000,54881.000,1.000
191674.625,190367.484,208533.375,201452.172,193277.063,184644.016,193383.813,183287.438,0.038,1.003,0.191,-2.075,-0.275,-0.458,80.000,54882.000,1.000
191643.688,190323.953,208493.328,201415.781,193247.375,184600.563,193343.938,183258.203,0.038,1.002,0.192,-2.014,-0.153,-0.336,80.000,54883.000,1.000
191627.859,190332.625,208505.844,201421.063,193250.594,184632.922,193367.906,183240.328,0.037,1.002,0.190,-2.075,-0.122,-0.397,80.000,54884.000,1.000
191646.375,190371.250,208543.750,201456.906,193275.000,184678.703,193399.109,183259.719,0.040,1.002,0.191,-2.045,-0.153,-0.610,80.000,54885.000,1.000
191674.266,190389.750,208562.078,201474.703,193291.641,184683.797,193410.641,183285.563,0.041,1.000,0.189,-2.014,-0.092,-0.488,80.000,54886.000,1.000
191681.063,190370.359,208538.828,201459.766,193284.391,184648.031,193385.781,183288.969,0.038,1.003,0.189,-1.984,0.061,-0.336,80.000,54887.000,1.000
191654.500,190335.750,208504.766,201429.641,193258.906,184608.078,193358.156,183262.594,0.041,1.002,0.191,-1.892,0.092,-0.336,80.000,54888.000,1.000
191633.859,190340.313,208511.031,201425.797,193253.109,184638.031,193363.781,183238.172,0.037,1.002,0.193,-1.953,0.183,-0.305,80.000,54889.000,1.000
191659.781,190383.313,208557.516,201465.844,193286.453,184694.891,193413.672,183261.969,0.037,1.002,0.191,-1.953,0.122,-0.244,80.000,54890.000,1.000
191684.016,190396.547,208572.094,201477.203,193296.109,184683.438,193418.141,183281.094,0.037,1.001,0.191,-1.831,0.275,-0.366,80.000,54891.000,1.000
191677.938,190367.672,208534.719,201445.375,193278.219,184641.875,193386.141,183279.031,0.037,1.002,0.192,-1.831,0.244,-0.275,80.000,54892.000,1.000
191648.156,190333.609,208498.688,201416.141,193258.375,184616.297,193360.656,183259.641,0.036,1.003,0.191,-1.831,0.214,-0.275,80.000,54893.000,1.000
191620.984,190333.609,208500.125,201405.141,193246.844,184629.891,193362.891,183228.703,0.035,1.003,0.194,-1.953,0.305,-0.366,80.000,54894.000,1.000
191640.109,190367.672,208540.438,201435.547,193269.641,184675.313,193398.828,183242.203,0.034,1.002,0.192,-1.984,0.183,-0.397,80.000,54895.000,1.000
191671.219,190394.500,208564.500,201459.766,193293.969,184703.469,193430.031,183275.813,0.033,1.003,0.191,-1.953,0.305,-0.336,80.000,54896.000,1.000
191683.109,190380.453,208544.922,201454.859,193293.516,184678.969,193413.766,183296.656,0.034,1.004,0.190,-1.831,0.275,-0.427,80.000,54897.000,1.000
191649.313,190335.578,208503.438,201423.656,193260.703,184632.844,193367.984,183264.016,0.034,1.007,0.192,-1.831,0.214,-0.336,80.000,54898.000,1.000
191632.953,190341.469,208513.797,201428.828,193256.406,184645.094,193375.859,183244.891,0.032,1.007,0.192,-1.953,0.122,-0.336,80.000,54899.000,1.000
191640.297,190365.078,208537.859,201445.469,193264.453,184661.000,193398.125,183249.094,0.031,1.004,0.189,-1.984,0.061,-0.366,80.000,54900.000,1.000
191672.125,190389.391,208559.578,201462.625,193282.516,184677.547,193415.734,183272.875,0.031,1.003,0.188,-2.014,0.000,-0.366,80.000,54901.000,1.000
191678.109,190364.906,208535.266,201448.594,193274.922,184648.031,193393.203,183282.250,0.031,1.003,0.190,-1.984,-0.122,-0.336,80.000,54902.000,1.000
191655.750,190333.344,208504.766,201423.016,193251.500,184613.172,193355.469,183252.484,0.033,1.001,0.191,-1.923,-0.214,-0.275,80.000,54903.000,1.000
191643.422,190347.734,208519.250,201426.781,193251.578,184635.438,193364.953,183229.859,0.034,1.001,0.188,-1.831,-0.122,-0.214,80.000,54904.000,1.000
191657.359,190382.063,208553.500,201448.953,193268.656,184671.813,193387.391,183236.844,0.036,0.997,0.190,-1.678,-0.214,-0.244,80.000,54905.000,1.000
191677.484,190399.141,208567.797,201464.156,193283.953,184681.391,193401.969,183263.844,0.036,0.998,0.189,-1.678,-0.305,-0.122,80.000,54906.000,1.000
191678.469,190367.141,208537.406,201447.156,193272.234,184631.594,193369.328,183273.500,0.034,0.999,0.187,-1.678,-0.336,-0.061,80.000,54907.000,1.000
191654.234,190337.984,208508.172,201422.938,193256.047,184602.625,193349.656,183254.453,0.033,1.000,0.191,-1.556,-0.305,0.000,80.000,54908.000,1.000
191640.109,190346.750,208520.594,201426.688,193258.734,184627.922,193371.484,183238.719,0.033,0.997,0.189,-1.495,-0.336,0.000,80.000,54909.000,1.000
191662.734,190387.781,208561.984,201462.984,193289.938,184689.250,193419.844,183263.125,0.033,0.999,0.187,-1.373,-0.366,-0.061,80.000,54910.000,1.000
191692.953,190413.625,208583.984,201485.781,193312.469,184716.250,193442.641,183292.625,0.033,0.999,0.186,-1.312,-0.427,-0.122,80.000,54911.000,1.000
191681.781,190375.813,208539.281,201448.500,193284.313,184663.781,193389.813,183281.906,0.033,1.001,0.188,-1.343,-0.397,-0.092,80.000,54912.000,1.000
191655.047,190339.953,208505.047,201417.031,193258.016,184627.563,193355.563,183254.891,0.031,1.002,0.189,-1.312,-0.549,-0.092,80.000,54913.000,1.000
191641.547,190350.141,208518.266,201421.500,193252.828,184635.078,193354.219,183229.422,0.032,1.000,0.190,-1.251,-0.519,-0.122,80.000,54914.000,1.000
191669.438,190395.391,208565.844,201466.828,193287.703,184690.594,193409.656,183257.313,0.032,1.001,0.190,-1.343,-0.549,-0.183,80.000,54915.000,1.000
191687.594,190407.094,208579.609,201485.156,193310.406,184728.141,193453.109,183298.438,0.033,1.002,0.187,-1.404,-0.610,-0.244,80.000,54916.000,1.000
191668.281,190361.406,208529.266,201440.719,193278.141,184665.922,193395.172,183280.828,0.034,1.002,0.183,-1.343,-0.671,-0.305,80.000,54917.000,1.000
191646.188,190336.828,208499.047,201421.500,193260.703,184632.844,193366.297,183268.313,0.035,1.003,0.185,-1.465,-0.641,-0.427,80.000,54918.000,1.000
191625.984,190333.516,208502.531,201417.656,193249.172,184629.359,193366.203,183232.547,0.035,1.002,0.186,-1.434,-0.702,-0.427,80.000,54919.000,1.000
191631.344,190355.953,208526.500,201429.547,193254.797,184653.672,193387.578,183221.109,0.036,1.002,0.187,-1.312,-0.671,-0.397,80.000,54920.000,1.000
191660.406,190384.750,208548.578,201449.484,193276.266,184675.844,193406.438,183251.328,0.035,1.003,0.187,-1.434,-0.763,-0.458,80.000,54921.000,1.000
191668.984,190363.734,208525.875,201438.406,193270.984,184636.859,193379.797,183267.141,0.035,1.002,0.190,-1.526,-0.641,-0.488,80.000,54922.000,1.000
191646.188,190334.047,208494.313,201410.063,193250.063,184607.000,193347.688,183245.875,0.035,1.004,0.184,-1.648,-0.702,-0.397,80.000,54923.000,1.000
191633.938,190341.031,208507.625,201415.875,193250.781,184626.938,193361.375,183230.313,0.037,1.005,0.182,-1.740,-0.671,-0.275,80.000,54924.000,1.000
191657.641,190385.641,208551.266,201451.906,193284.391,184692.828,193417.969,183253.469,0.036,1.003,0.184,-1.740,-0.580,-0.275,80.000,54925.000,1.000
191682.672,190407.281,208571.563,201475.422,193303.172,184703.375,193434.859,183281.547,0.039,1.004,0.185,-1.831,-0.580,-0.183,80.000,54926.000,1.000
191689.203,190382.875,208546.078,201460.656,193292.703,184666.359,193393.297,183283.422,0.037,1.005,0.186,-1.862,-0.549,-0.183,80.000,54927.000,1.000
191662.016,190347.109,208509.875,201425.969,193266.953,184622.469,193357.266,183258.297,0.037,1.006,0.189,-1.923,-0.641,-0.061,80.000,54928.000,1.000
191646.281,190356.859,208523.375,201430.719,193269.375,184649.922,193376.750,183251.766,0.038,1.004,0.188,-1.984,-0.519,-0.092,80.000,54929.000,1.000
191647.078,190371.688,208544.281,201444.391,193273.484,184663.781,193397.219,183250.969,0.039,1.003,0.188,-2.106,-0.427,-0.061,80.000,54930.000,1.000
191660.406,190382.328,208552.969,201453.875,193281.531,184683.359,193410.641,183266.875,0.038,1.002,0.187,-2.075,-0.397,0.061,80.000,54931.000,1.000
191675.422,190365.609,208534.000,201449.125,193278.578,184656.000,193389.531,183284.578,0.036,1.003,0.188,-2.136,-0.397,-0.031,80.000,54932.000,1.000
191653.797,190334.141,208500.750,201415.688,193252.656,184613.891,193356.375,183252.938,0.039,1.003,0.189,-2.136,-0.458,-0.031,80.000,54933.000,1.000
191629.828,190336.203,208504.766,201413.906,193245.328,184627.297,193365.391,183234.953,0.039,1.003,0.190,-2.167,-0.336,0.031,80.000,54934.000,1.000
191642.703,190364.547,208534.984,201437.422,193259.359,184660.016,193386.938,183240.859,0.036,1.005,0.188,-2.228,-0.366,-0.031,80.000,54935.000,1.000
191672.297,190393.063,208555.734,201457.266,193280.734,184686.219,193411.359,183270.094,0.036,1.005,0.190,-2.197,-0.183,0.031,80.000,54936.000,1.000
191691.875,190386.266,208543.313,201459.047,193286.547,184667.078,193402.594,183291.828,0.037,1.005,0.191,-2.350,-0.092,0.031,80.000,54937.000,1.000
191663.172,190350.234,208507.359,201429.188,193265.703,184642.313,193380.234,183270.547,0.037,1.003,0.187,-2.411,-0.183,0.000,80.000,54938.000,1.000
191641.094,190347.469,208513.094,201429.734,193256.953,184648.578,193372.453,183249.359,0.037,1.005,0.185,-2.441,-0.153,-0.031,80.000,54939.000,1.000
191657.547,190381.797,208549.656,201453.953,193275.000,184685.047,193398.297,183251.328,0.037,1.003,0.188,-2.472,-0.122,0.092,80.000,54940.000,1.000
191677.391,190397.172,208561.813,201457.797,193285.281,184686.297,193406.172,183263.844,0.038,1.000,0.192,-2.502,-0.122,-0.061,80.000,54941.000,1.000
191683.109,190372.594,208534.719,201441.797,193275.813,184650.984,193375.500,183272.156,0.036,1.002,0.186,-2.502,-0.153,-0.092,80.000,54942.000,1.000
191661.844,190340.406,208504.141,201418.469,193254.891,184609.141,193352.797,183250.078,0.035,1.000,0.189,-2.472,-0.122,-0.092,80.000,54943.000,1.000
191650.844,190346.922,208518.000,201428.563,193257.031,184624.438,193372.734,183245.328,0.036,1.000,0.192,-2.441,-0.122,-0.183,80.000,54944.000,1.000
191674.359,190385.906,208558.234,201461.203,193281.719,184669.766,193406.172,183259.906,0.035,1.000,0.189,-2.472,-0.183,-0.183,80.000,54945.000,1.000
191700.016,190407.375,208573.172,201476.750,193294.234,184689.172,193408.844,183271.438,0.037,1.000,0.190,-2.502,-0.031,-0.397,80.000,54946.000,1.000
191709.047,190391.813,208550.375,201465.406,193290.391,184660.641,193392.578,183291.563,0.036,1.001,0.190,-2.441,-0.153,-0.305,80.000,54947.000,1.000
191683.469,190355.875,208514.781,201430.172,193264.281,184617.188,193361.641,183262.938,0.035,1.002,0.192,-2.380,0.031,-0.305,80.000,54948.000,1.000
191663.359,190357.563,208519.969,201424.719,193258.016,184638.563,193370.313,183238.266,0.036,1.001,0.192,-2.289,-0.092,-0.397,80.000,54949.000,1.000
191688.563,190401.906,208564.672,201457.625,193290.391,184701.688,193423.156,183261.063,0.036,1.003,0.191,-2.289,-0.031,-0.458,80.000,54950.000,1.000
191721.922,190431.594,208590.688,201481.938,193316.141,184730.297,193453.469,183296.297,0.038,1.000,0.191,-2.319,0.000,-0.366,80.000,54951.000,1.000
191722.188,190397.359,208554.844,201461.375,193293.516,184672.094,193396.594,183297.813,0.034,1.001,0.192,-2.350,0.031,-0.275,80.000,54952.000,1.000
191690.891,190352.375,208511.656,201427.500,193259.094,184619.250,193350.563,183265.266,0.036,1.004,0.192,-2.228,0.092,-0.397,80.000,54953.000,1.000
191668.719,190349.797,208513.531,201423.469,193249.344,184625.688,193356.375,183240.422,0.035,1.005,0.188,-2.258,0.092,-0.397,80.000,54954.000,1.000
191680.969,190380.281,208543.938,201449.219,193271.344,184678.891,193402.859,183255.875,0.035,1.002,0.189,-2.319,0.000,-0.336,80.000,54955.000,1.000
191711.813,190408.797,208566.469,201472.281,193294.766,184704.281,193426.109,183285.297,0.036,1.003,0.190,-2.319,-0.092,-0.366,80.000,54956.000,1.000
191717.531,190389.391,208540.172,201455.656,193284.313,184661.000,193388.016,183288.063,0.036,1.002,0.189,-2.350,-0.183,-0.366,80.000,54957.000,1.000
191691.344,190349.344,208505.047,201424.547,193255.969,184604.234,193345.281,183259.188,0.035,1.001,0.192,-2.411,-0.153,-0.336,80.000,54958.000,1.000
191685.797,190367.672,208527.656,201437.859,193266.688,184639.813,193374.156,183254.266,0.035,1.001,0.191,-2.319,-0.092,-0.305,80.000,54959.000,1.000
191708.594,190404.328,208570.031,201472.641,193294.234,184693.375,193407.516,183268.484,0.035,1.000,0.193,-2.258,-0.122,-0.366,80.000,54960.000,1.000
191739.359,190434.813,208593.906,201492.578,193314.078,184702.844,193420.656,183294.500,0.034,0.999,0.193,-2.228,-0.092,-0.305,80.000,54961.000,1.000
191738.641,190404.953,208559.938,201467.375,193297.094,184663.688,193392.750,183295.406,0.033,1.001,0.193,-2.258,-0.183,-0.275,80.000,54962.000,1.000
191709.938,190360.156,208520.234,201435.547,193269.109,184622.563,193360.391,183266.516,0.034,1.000,0.192,-2.197,-0.214,-0.275,80.000,54963.000,1.000
191690.000,190366.234,208527.750,201437.594,193266.688,184642.047,193372.016,183247.297,0.033,1.000,0.190,-2.167,-0.244,-0.275,80.000,54964.000,1.000
191707.531,190406.391,208567.359,201471.578,193293.328,184695.063,193413.234,183263.750,0.032,1.000,0.190,-2.075,-0.275,-0.275,80.000,54965.000,1.000
191740.688,190437.859,208592.391,201495.172,193317.391,184721.703,193440.859,183293.969,0.033,1.001,0.189,-1.953,-0.244,-0.244,80.000,54966.000,1.000
191746.953,190413.000,208565.125,201483.188,193304.422,184671.016,193404.016,183302.109,0.035,1.000,0.190,-1.984,-0.305,-0.336,80.000,54967.000,1.000
191719.766,190375.719,208527.922,201449.484,193277.250,184636.422,193372.547,183275.109,0.035,1.000,0.191,-1.953,-0.458,-0.244,80.000,54968.000,1.000
191705.375,190380.906,208537.859,201454.313,193273.578,184651.875,193384.078,183259.641,0.034,1.001,0.192,-1.892,-0.458,-0.244,80.000,54969.000,1.000
191720.391,190406.109,208570.578,201481.406,193286.547,184674.063,193395.703,183262.938,0.034,1.003,0.195,-1.862,-0.397,-0.275,80.000,54970.000,1.000
191738.906,190426.406,208584.609,201491.328,193302.094,184694.703,193416.266,183279.672,0.035,1.002,0.190,-1.831,-0.427,-0.244,80.000,54971.000,1.000
191729.875,190388.500,208547.328,201464.156,193287.969,184656.984,193392.578,183289.953,0.035,1.002,0.192,-1.770,-0.366,-0.275,80.000,54972.000,1.000
191686.422,190335.656,208498.063,201421.141,193249.703,184601.094,193341.078,183256.500,0.036,1.001,0.188,-1.709,-0.397,-0.214,80.000,54973.000,1.000
191667.016,190346.484,208507.359,201418.641,193246.844,184621.219,193350.281,183232.188,0.036,1.000,0.188,-1.770,-0.427,-0.214,80.000,54974.000,1.000
191686.250,190382.688,208546.703,201453.875,193275.359,184675.578,193400.172,183253.641,0.037,0.999,0.192,-1.678,-0.427,-0.244,80.000,54975.000,1.000
191711.281,190403.875,208567.266,201474.875,193294.938,184690.594,193418.234,183283.063,0.036,1.000,0.189,-1.709,-0.427,-0.244,80.000,54976.000,1.000
191718.438,190393.516,208547.063,201463.438,193290.297,184666.547,193394.813,183295.313,0.036,1.001,0.190,-1.678,-0.397,-0.183,80.000,54977.000,1.000
191694.297,190362.219,208514.344,201433.750,193262.125,184618.438,193351.813,183261.516,0.035,1.002,0.190,-1.617,-0.366,-0.153,80.000,54978.000,1.000
191679.547,190368.469,208528.109,201441.438,193260.797,184631.313,193363.438,183246.578,0.037,1.003,0.189,-1.556,-0.488,-0.122,80.000,54979.000,1.000
191691.609,190400.297,208564.234,201468.438,193283.953,184681.297,193405.094,183264.109,0.036,1.003,0.194,-1.526,-0.397,-0.244,80.000,54980.000,1.000
191717.453,190421.938,208582.828,201483.734,193304.781,184705.969,193428.516,183293.172,0.035,1.003,0.194,-1.556,-0.427,-0.153,80.000,54981.000,1.000
191720.672,190395.828,208551.703,201459.328,193288.859,184661.719,193390.703,183290.750,0.037,1.003,0.195,-1.678,-0.458,-0.092,80.000,54982.000,1.000
191697.594,190368.391,208522.734,201435.000,193270.000,184635.969,193366.828,183267.859,0.036,1.002,0.195,-1.648,-0.427,0.000,80.000,54983.000,1.000
191674.719,190369.641,208528.734,201432.328,193262.219,184643.297,193374.156,183242.828,0.036,1.003,0.195,-1.648,-0.366,-0.061,80.000,54984.000,1.000
191695.359,190409.688,208568.516,201460.031,193284.750,184693.188,193411.266,183250.156,0.036,1.004,0.192,-1.770,-0.336,0.000,80.000,54985.000,1.000
191731.844,190438.219,208594.984,201488.563,193305.500,184705.969,193417.250,183278.766,0.035,1.002,0.195,-1.740,-0.336,-0.031,80.000,54986.000,1.000
191740.063,190413.719,208567.625,201473.094,193293.250,184670.391,193384.984,183284.484,0.037,1.002,0.192,-1.801,-0.336,-0.061,80.000,54987.000,1.000
191713.422,190379.297,208531.594,201439.922,193270.266,184637.219,193368.891,183267.500,0.039,1.002,0.192,-1.770,-0.336,-0.122,80.000,54988.000,1.000
191689.281,190378.219,208534.281,201435.984,193260.438,184636.500,193374.781,183238.813,0.039,1.001,0.195,-1.831,-0.214,-0.092,80.000,54989.000,1.000
191693.391,190394.672,208558.328,201457.984,193267.594,184650.094,193370.406,183234.156,0.035,1.000,0.198,-1.862,-0.305,-0.031,80.000,54990.000,1.000
191713.781,190415.688,208577.453,201480.688,193296.906,184691.578,193409.750,183279.938,0.036,1.002,0.198,-1.831,-0.244,-0.031,80.000,54991.000,1.000
191714.406,190398.969,208552.875,201466.109,193301.469,184681.203,193418.594,183306.125,0.036,1.003,0.194,-1.953,-0.214,-0.031,80.000,54992.000,1.000
191681.688,190354.797,208511.484,201426.688,193270.531,184635.156,193369.781,183270.016,0.037,1.002,0.193,-1.953,-0.183,-0.122,80.000,54993.000,1.000
191658.172,190350.500,208514.422,201423.109,193260.250,184637.313,193367.359,183247.297,0.040,1.002,0.193,-1.953,-0.092,-0.092,80.000,54994.000,1.000
191661.219,190373.484,208540.094,201440.719,193274.031,184668.875,193404.203,183260.078,0.037,1.002,0.191,-1.953,-0.214,-0.061,80.000,54995.000,1.000
191690.984,190401.016,208564.938,201469.063,193302.453,184700.156,193436.828,183298.000,0.039,1.003,0.194,-1.923,-0.183,-0.122,80.000,54996.000,1.000
191694.656,190379.563,208536.688,201449.484,193290.031,184657.516,193385.969,183285.031,0.039,1.001,0.195,-2.014,-0.183,-0.122,80.000,54997.000,1.000
191671.500,190350.688,208507.188,201424.625,193271.250,184619.516,193358.063,183264.375,0.038,1.002,0.192,-1.953,-0.153,-0.092,80.000,54998.000,1.000
191665.328,190372.594,208529.172,201437.953,193278.766,184649.016,193378.891,183253.109,0.038,1.003,0.192,-1.862,-0.092,0.031,80.000,54999.000,1.000
191684.375,190412.203,208568.703,201467.375,193301.203,184697.125,193404.375,183263.656,0.038,1.003,0.194,-1.740,-0.061,0.000,80.000,55000.000,1.000
191718.078,190432.047,208596.406,201498.656,193325.344,184701.594,193434.156,183298.703,0.039,1.002,0.191,-1.678,-0.092,0.031,80.000,55001.000,1.000
191732.203,190420.234,208581.922,201497.313,193325.703,184659.391,193412.875,183319.094,0.037,1.002,0.191,-1.709,-0.061,0.031,80.000,55002.000,1.000
191695.813,190383.234,208543.844,201459.859,193301.828,184631.141,193379.250,183293.344,0.034,1.003,0.188,-1.678,0.000,0.000,80.000,55003.000,1.000
191671.500,190381.969,208546.797,201454.500,193292.891,184643.828,193383.906,183270.547,0.036,1.003,0.190,-1.709,0.000,-0.061,80.000,55004.000,1.000
191679.453,190402.359,208569.766,201468.531,193299.063,184677.547,193406.250,183266.078,0.037,1.003,0.191,-1.709,0.000,0.031,80.000,55005.000,1.000
191708.422,190429.453,208590.422,201487.844,193317.297,184707.938,193428.516,183291.469,0.036,1.002,0.192,-1.678,0.061,-0.122,80.000,55006.000,1.000
191716.016,190411.656,208566.906,201473.625,193313.453,184689.609,193419.578,183309.250,0.037,1.003,0.190,-1.587,-0.031,-0.092,80.000,55007.000,1.000
191682.406,190364.719,208523.375,201434.563,193278.578,184636.500,193376.656,183279.219,0.037,1.004,0.191,-1.556,-0.122,-0.122,80.000,55008.000,1.000
191660.672,190364.625,208526.047,201430.625,193270.266,184656.172,193387.578,183256.422,0.036,1.002,0.193,-1.648,-0.092,-0.092,80.000,55009.000,1.000
191676.406,190399.141,208560.563,201459.047,193289.766,184706.422,193419.047,183270.281,0.037,1.000,0.194,-1.587,-0.061,-0.214,80.000,55010.000,1.000
191702.422,190425.516,208580.313,201478.016,193308.000,184725.641,193430.125,183295.844,0.040,1.000,0.194,-1.587,-0.061,-0.275,80.000,55011.000,1.000
191704.938,190400.297,208551.359,201459.688,193297.094,184674.859,193404.641,183302.734,0.040,1.001,0.192,-1.587,0.000,-0.275,80.000,55012.000,1.000
191680.172,190365.172,208521.484,201440.375,193282.250,184653.219,193390.438,183295.844,0.039,1.001,0.191,-1.678,-0.092,-0.153,80.000,55013.000,1.000
191664.344,190364.547,208528.906,201441.172,193278.406,184666.906,193402.500,183277.875,0.039,1.001,0.189,-1.617,-0.092,-0.061,80.000,55014.000,1.000
191679.547,190397.719,208561.813,201464.859,193296.734,184697.750,193425.922,183287.531,0.041,1.000,0.189,-1.373,-0.122,-0.183,80.000,55015.000,1.000
191703.141,190422.125,208579.516,201485.344,193315.859,184712.953,193440.859,183316.328,0.038,1.002,0.189,-1.465,-0.061,-0.031,80.000,55016.000,1.000
191717.094,190413.172,208565.203,201483.469,193319.703,184695.422,193420.469,183332.234,0.036,1.000,0.191,-1.495,0.000,-0.092,80.000,55017.000,1.000
191691.781,190373.297,208532.484,201458.969,193297.891,184658.594,193386.047,183311.938,0.037,0.999,0.189,-1.343,0.061,-0.092,80.000,55018.000,1.000
191659.328,190362.125,208525.688,201440.016,193279.656,184652.594,193391.141,183272.422,0.037,1.000,0.186,-1.404,-0.031,-0.122,80.000,55019.000,1.000
191668.719,190397.172,208557.609,201458.703,193299.500,184698.641,193432.906,183278.234,0.034,0.998,0.189,-1.373,-0.092,-0.244,80.000,55020.000,1.000
191700.547,190428.641,208584.172,201484.094,193329.359,184732.078,193461.156,183315.516,0.035,1.000,0.190,-1.221,-0.092,-0.275,80.000,55021.000,1.000
191698.313,190401.906,208551.625,201460.219,193313.000,184686.125,193419.672,183316.766,0.039,1.002,0.192,-1.099,-0.153,-0.336,80.000,55022.000,1.000
191678.375,190373.484,208524.172,201435.625,193291.719,184650.000,193388.203,183291.281,0.040,1.005,0.189,-1.190,-0.061,-0.305,80.000,55023.000,1.000
191673.375,190388.953,208545.359,201446.531,193296.203,184670.750,193409.469,183287.078,0.039,1.005,0.189,-1.221,-0.031,-0.244,80.000,55024.000,1.000
191682.406,190406.922,208572.281,201462.000,193304.781,184715.188,193431.922,183276.797,0.041,1.007,0.188,-1.343,-0.183,-0.275,80.000,55025.000,1.000
191713.156,190430.078,208593.469,201484.172,193320.516,184731.359,193440.500,183291.375,0.040,1.007,0.187,-1.404,-0.183,-0.305,80.000,55026.000,1.000
191715.219,190405.313,208561.813,201465.406,193305.578,184683.078,193404.203,183299.063,0.039,1.006,0.191,-1.343,-0.214,-0.275,80.000,55027.000,1.000
191681.500,190368.750,208518.266,201427.313,193275.641,184647.406,193364.141,183268.938,0.039,1.006,0.190,-1.404,-0.153,-0.305,80.000,55028.000,1.000
191678.203,190394.219,208542.328,201444.391,193289.219,184692.469,193393.656,183264.547,0.040,1.005,0.188,-1.526,-0.122,-0.366,80.000,55029.000,1.000
191698.141,190426.594,208580.594,201471.844,193310.500,184725.828,193435.500,183277.422,0.037,1.006,0.189,-1.678,-0.183,-0.458,80.000,55030.000,1.000
191708.953,190424.984,208581.484,201473.000,193309.969,184717.063,193436.563,183292.188,0.035,1.009,0.190,-1.678,-0.244,-0.488,80.000,55031.000,1.000
191713.875,190402.891,208554.219,201452.078,193300.406,184680.672,193410.375,183302.109,0.035,1.008,0.190,-1.740,-0.183,-0.580,80.000,55032.000,1.000
191696.266,190376.172,208528.641,201432.766,193285.734,184654.750,193384.359,183285.563,0.035,1.010,0.194,-1.801,-0.183,-0.610,80.000,55033.000,1.000
191675.969,190378.578,208534.547,201430.359,193280.188,184672.172,193392.047,183256.688,0.035,1.008,0.194,-1.831,-0.244,-0.641,80.000,55034.000,1.000
191676.594,190392.969,208558.063,201448.141,193291.719,184693.641,193426.109,183265.891,0.036,1.005,0.195,-1.984,-0.244,-0.732,80.000,55035.000,1.000
191696.703,190408.984,208571.641,201468.172,193308.000,184705.078,193435.938,183297.188,0.035,1.005,0.191,-2.014,-0.275,-0.732,80.000,55036.000,1.000
191700.813,190391.625,208547.063,201460.578,193304.875,184671.109,193409.828,183315.516,0.037,1.003,0.190,-2.045,-0.305,-0.732,80.000,55037.000,1.000
191672.203,190360.969,208514.063,201440.641,193284.750,184641.156,193373.797,183292.891,0.038,1.002,0.192,-2.106,-0.427,-0.793,80.000,55038.000,1.000
191657.547,190373.031,208528.375,201448.594,193290.031,184666.547,193392.047,183278.328,0.037,1.001,0.191,-2.014,-0.458,-0.671,80.000,55039.000,1.000
191668.359,190405.406,208561.188,201474.250,193314.609,184709.375,193438.797,183299.875,0.036,1.001,0.187,-2.014,-0.519,-0.549,80.000,55040.000,1.000
191689.469,190427.125,208577.906,201491.953,193334.641,184730.828,193461.063,183334.297,0.037,1.000,0.185,-2.014,-0.458,-0.641,80.000,55041.000,1.000
191700.453,190412.828,208555.734,201473.813,193327.844,184695.250,193430.750,183332.766,0.039,1.001,0.187,-2.014,-0.519,-0.488,80.000,55042.000,1.000
191671.938,190377.328,208518.453,201436.875,193299.766,184669.047,193392.391,183300.234,0.039,0.999,0.190,-1.953,-0.488,-0.397,80.000,55043.000,1.000
191664.703,190388.859,208535.344,201447.250,193301.563,184692.297,193400.172,183287.984,0.038,1.001,0.189,-2.075,-0.427,-0.214,80.000,55044.000,1.000
191679.453,190415.063,208567.266,201468.625,193315.781,184707.313,193436.125,183300.766,0.037,1.000,0.190,-1.862,-0.488,-0.183,80.000,55045.000,1.000
191702.969,190431.500,208584.875,201485.078,193331.516,184718.313,193461.328,183331.969,0.037,0.999,0.191,-1.923,-0.519,-0.153,80.000,55046.000,1.000
191709.484,190413.719,208560.469,201472.281,193322.125,184701.953,193432.813,183326.328,0.037,1.000,0.193,-1.892,-0.549,-0.183,80.000,55047.000,1.000
191691.875,190390.641,208534.000,201452.172,193301.563,184671.281,193395.438,183301.563,0.036,0.999,0.193,-1.801,-0.549,-0.153,80.000,55048.000,1.000
191671.219,190391.625,208539.469,201443.672,193290.563,184678.969,193395.172,183272.516,0.036,1.001,0.190,-1.801,-0.458,-0.092,80.000,55049.000,1.000
191682.578,190417.203,208571.203,201465.484,193302.984,184711.516,193415.641,183278.500,0.036,1.000,0.191,-1.801,-0.427,-0.183,80.000,55050.000,1.000
191721.031,190445.188,208600.266,201497.500,193327.938,184730.828,193445.234,183308.359,0.035,1.002,0.192,-1.770,-0.488,-0.092,80.000,55051.000,1.000
191716.547,190413.000,208564.141,201469.969,193313.188,184690.328,193425.484,183316.141,0.034,1.002,0.190,-1.862,-0.397,-0.183,80.000,55052.000,1.000
191687.594,190378.047,208529.172,201438.219,193291.547,184665.297,193406.344,183299.609,0.035,0.999,0.190,-1.831,-0.549,-0.153,80.000,55053.000,1.000
191664.156,190372.406,208531.063,201429.906,193278.219,184669.500,193396.422,183265.453,0.036,1.002,0.189,-1.801,-0.580,-0.183,80.000,55054.000,1.000
191673.813,190398.781,208559.938,201452.531,193290.469,184690.781,193405.719,183272.156,0.035,1.002,0.192,-1.892,-0.458,-0.183,80.000,55055.000,1.000
191699.922,190424.797,208583.531,201486.063,193320.969,184722.328,193442.734,183313.641,0.036,1.000,0.192,-1.984,-0.519,-0.214,80.000,55056.000,1.000
191699.125,190400.297,208553.313,201470.594,193311.031,184685.141,193411.078,183319.094,0.036,1.002,0.190,-1.953,-0.580,-0.214,80.000,55057.000,1.000
191671.672,190365.609,208519.609,201444.219,193290.656,184649.203,193384.172,183299.063,0.037,1.003,0.189,-2.014,-0.702,-0.305,80.000,55058.000,1.000
191648.250,190364.188,208524.266,201444.125,193286.094,184657.063,193393.469,183280.469,0.038,1.001,0.191,-2.045,-0.610,-0.427,80.000,55059.000,1.000
191658.703,190404.234,208559.750,201468.891,193308.797,184697.922,193424.766,183294.688,0.038,1.001,0.191,-1.953,-0.519,-0.336,80.000,55060.000,1.000
191685.625,190425.875,208580.313,201488.297,193327.313,184716.438,193434.516,183314.266,0.037,1.000,0.194,-1.923,-0.427,-0.336,80.000,55061.000,1.000
191697.875,190412.016,208561.984,201483.547,193330.172,184696.141,193428.781,183338.313,0.037,1.001,0.191,-1.740,-0.458,-0.336,80.000,55062.000,1.000
191670.859,190379.469,208526.766,201452.797,193307.016,184663.234,193401.969,183315.969,0.036,1.002,0.192,-1.801,-0.488,-0.397,80.000,55063.000,1.000
191647.078,190379.469,208529.453,201443.234,193295.844,184674.953,193404.109,183282.703,0.038,1.001,0.193,-1.831,-0.488,-0.366,80.000,55064.000,1.000
191668.547,190411.750,208569.406,201477.297,193316.578,184719.828,193440.766,183293.875,0.038,1.001,0.192,-1.831,-0.458,-0.305,80.000,55065.000,1.000
191704.125,190440.359,208593.109,201496.875,193335.797,184735.750,193461.594,183323.109,0.039,1.002,0.194,-1.770,-0.397,-0.305,80.000,55066.000,1.000
191707.172,190416.391,208560.656,201469.688,193317.203,184695.250,193422.438,183323.922,0.038,1.003,0.195,-1.770,-0.305,-0.336,80.000,55067.000,1.000
191686.422,190385.469,208530.516,201445.469,193295.031,184661.891,193389.891,183302.109,0.040,1.002,0.190,-1.740,-0.275,-0.305,80.000,55068.000,1.000
191674.891,190392.438,208542.859,201446.625,193292.000,184674.141,193389.000,183273.766,0.040,1.002,0.190,-1.740,-0.244,-0.305,80.000,55069.000,1.000
191673.641,190404.156,208563.156,201456.641,193297.359,184696.234,193416.719,183271.703,0.039,1.003,0.193,-1.740,-0.153,-0.244,80.000,55070.000,1.000
191702.516,190430.531,208589.625,201480.953,193323.109,184733.594,193447.109,183307.734,0.036,1.007,0.192,-1.648,-0.031,-0.214,80.000,55071.000,1.000
191713.516,190410.938,208570.750,201474.156,193321.047,184700.703,193430.844,183325.797,0.039,1.006,0.192,-1.709,-0.122,-0.153,80.000,55072.000,1.000
191682.844,190373.031,208529.984,201436.703,193291.906,184661.266,193395.266,183294.953,0.039,1.004,0.191,-1.801,-0.061,-0.092,80.000,55073.000,1.000
191661.031,190373.031,208534.094,201436.250,193283.234,184666.016,193393.203,183270.281,0.039,1.003,0.194,-1.801,0.031,-0.183,80.000,55074.000,1.000
191670.781,190402.984,208565.922,201464.234,193301.375,184703.734,193423.516,183281.906,0.039,1.005,0.193,-1.862,0.061,-0.153,80.000,55075.000,1.000
191695.813,190430.703,208587.656,201488.016,193326.859,184737.359,193457.125,183316.766,0.038,1.004,0.188,-1.831,0.061,-0.153,80.000,55076.000,1.000
191697.156,190404.063,208559.406,201470.141,193318.281,184693.375,193431.828,183329.203,0.038,1.002,0.190,-1.862,0.061,-0.153,80.000,55077.000,1.000
191670.859,190369.188,208524.625,201437.781,193291.906,184646.250,193383.641,183300.766,0.036,1.003,0.187,-1.892,0.061,-0.214,80.000,55078.000,1.000
191652.719,190378.313,208535.797,201441.078,193287.250,184658.766,193374.516,183270.719,0.037,1.004,0.190,-1.953,0.061,-0.183,80.000,55079.000,1.000
191655.406,190395.828,208561.094,201457.625,193303.266,184699.000,193416.188,183285.391,0.034,1.005,0.191,-1.923,-0.122,-0.305,80.000,55080.000,1.000
191684.813,190420.594,208583.266,201478.547,193327.844,184726.359,193446.672,183317.750,0.035,1.005,0.189,-1.923,-0.092,-0.244,80.000,55081.000,1.000
191688.922,190397.625,208554.219,201462.359,193312.297,184673.078,193406.344,183316.859,0.035,1.003,0.190,-1.984,-0.153,-0.275,80.000,55082.000,1.000
191662.281,190362.750,208516.656,201433.391,193285.203,184625.859,193369.516,183293.172,0.036,1.002,0.192,-1.984,-0.336,-0.366,80.000,55083.000,1.000
191648.422,190368.750,208527.844,201437.328,193284.844,184653.141,193383.188,183270.984,0.039,1.000,0.190,-1.892,-0.275,-0.336,80.000,55084.000,1.000
191677.938,190414.516,208577.641,201480.688,193320.875,184720.094,193438.359,183299.250,0.037,1.000,0.191,-1.862,-0.244,-0.336,80.000,55085.000,1.000
191704.031,190438.578,208598.203,201500.984,193340.813,184750.047,193456.406,183324.375,0.038,1.000,0.191,-1.678,-0.244,-0.244,80.000,55086.000,1.000
191715.656,190425.063,208577.547,201492.672,193336.422,184710.984,193434.156,183337.875,0.039,1.000,0.188,-1.526,-0.275,-0.214,80.000,55087.000,1.000
191694.563,190392.078,208543.125,201461.922,193308.625,184656.266,193388.641,183306.938,0.037,1.001,0.188,-1.526,-0.244,-0.122,80.000,55088.000,1.000
191666.938,190381.438,208542.594,201447.250,193296.375,184660.906,193396.594,183277.078,0.036,1.002,0.189,-1.495,-0.366,-0.183,80.000,55089.000,1.000
191672.750,190409.063,208572.547,201466.563,193312.203,184702.125,193425.484,183285.031,0.036,1.002,0.189,-1.495,-0.275,-0.153,80.000,55090.000,1.000
191697.688,190429.266,208591.406,201483.906,193329.016,184720.094,193446.578,183311.766,0.035,1.000,0.187,-1.434,-0.427,-0.214,80.000,55091.000,1.000
191721.109,190418.547,208581.391,201483.813,193334.109,184702.047,193436.391,183336.703,0.035,0.998,0.187,-1.434,-0.366,-0.183,80.000,55092.000,1.000
191696.344,190388.234,208547.234,201452.531,193310.500,184672.266,193401.703,183311.219,0.036,0.998,0.187,-1.343,-0.458,-0.153,80.000,55093.000,1.000
191666.938,190378.313,208542.594,201437.594,193290.109,184661.984,193391.594,183276.625,0.035,1.000,0.184,-1.312,-0.427,-0.275,80.000,55094.000,1.000
191672.391,190401.828,208569.688,201457.266,193302.641,184706.422,193415.641,183277.875,0.033,1.000,0.188,-1.343,-0.336,-0.336,80.000,55095.000,1.000
191699.828,190428.203,208590.516,201482.750,193323.828,184728.766,193432.094,183304.781,0.033,1.001,0.188,-1.312,-0.427,-0.275,80.000,55096.000,1.000
191700.109,190404.781,208560.922,201470.141,193316.578,184691.578,193418.953,183323.469,0.035,1.001,0.186,-1.251,-0.458,-0.275,80.000,55097.000,1.000
191669.078,190371.875,208524.172,201439.391,193293.609,184651.250,193388.281,183302.188,0.037,1.000,0.186,-1.251,-0.366,-0.305,80.000,55098.000,1.000
191656.734,190387.969,208542.688,201449.484,193299.141,184679.328,193400.000,183290.031,0.037,1.000,0.186,-1.190,-0.397,-0.397,80.000,55099.000,1.000
191670.781,190424.000,208582.641,201481.234,193326.141,184733.422,193445.781,183308.984,0.037,1.003,0.186,-1.312,-0.397,-0.397,80.000,55100.000,1.000
191687.672,190432.313,208591.766,201492.484,193331.875,184724.563,193444.969,183322.484,0.037,1.003,0.187,-1.312,-0.580,-0.336,80.000,55101.000,1.000
191684.375,190401.016,208556.453,201468.266,193314.344,184682.281,193412.250,183327.500,0.036,1.004,0.188,-1.343,-0.549,-0.519,80.000,55102.000,1.000
191665.406,190370.438,208525.516,201441.625,193295.031,184651.344,193389.625,183310.688,0.034,1.004,0.188,-1.495,-0.671,-0.519,80.000,55103.000,1.000
191656.656,190385.188,208543.125,201450.734,193300.750,184679.859,193413.234,183298.266,0.036,1.003,0.190,-1.556,-0.580,-0.519,80.000,55104.000,1.000
191663.094,190405.219,208565.563,201462.625,193302.281,184695.422,193418.234,183284.219,0.037,1.004,0.188,-1.587,-0.610,-0.366,80.000,55105.000,1.000
191688.391,190420.875,208579.781,201478.906,193313.453,184706.875,193423.156,183298.969,0.038,1.005,0.187,-1.587,-0.641,-0.488,80.000,55106.000,1.000
191698.313,190403.438,208558.859,201468.438,193314.438,184683.797,193412.063,183322.844,0.038,1.004,0.188,-1.678,-0.610,-0.336,80.000,55107.000,1.000
191673.641,190372.406,208526.500,201443.500,193292.438,184652.516,193378.625,183294.422,0.040,1.007,0.188,-1.831,-0.641,-0.305,80.000,55108.000,1.000
191658.266,190378.938,208537.938,201445.469,193288.234,184671.188,193388.906,183270.984,0.040,1.005,0.190,-1.801,-0.610,-0.336,80.000,55109.000,1.000
191673.188,190409.250,208571.203,201467.188,193299.766,184693.813,193411.078,183273.938,0.040,1.006,0.191,-1.862,-0.641,-0.214,80.000,55110.000,1.000
191698.406,190428.469,208588.094,201480.422,193313.000,184708.391,193426.109,183299.328,0.039,1.006,0.190,-1.892,-0.580,-0.153,80.000,55111.000,1.000
191706.813,190409.609,208564.672,201466.297,193308.797,184690.422,193409.469,183319.094,0.039,1.006,0.189,-2.075,-0.488,-0.122,80.000,55112.000,1.000
191685.797,190383.313,208534.813,201442.156,193288.688,184662.516,193379.531,183297.547,0.039,1.005,0.187,-2.075,-0.488,0.000,80.000,55113.000,1.000
191661.219,190379.297,208534.906,201435.625,193274.297,184654.750,193370.406,183265.359,0.038,1.004,0.187,-2.136,-0.336,0.061,80.000,55114.000,1.000
191680.172,190413.453,208576.203,201468.359,193303.078,184702.219,193420.469,183282.703,0.039,1.003,0.189,-2.228,-0.336,0.000,80.000,55115.000,1.000
191716.375,190445.281,208607.500,201503.406,193336.250,184742.906,193453.016,183322.578,0.039,1.002,0.190,-2.289,-0.336,0.092,80.000,55116.000,1.000
191713.688,190418.719,208573.438,201480.781,193320.156,184688.547,193412.516,183324.094,0.038,1.002,0.189,-2.289,-0.397,0.122,80.000,55117.000,1.000
191679.359,190379.922,208530.438,201440.094,193290.922,184644.281,193378.547,183294.422,0.039,1.002,0.190,-2.319,-0.336,0.092,80.000,55118.000,1.000
191656.297,190380.453,208536.063,201438.219,193287.078,184666.281,193388.016,183276.531,0.037,1.002,0.190,-2.258,-0.397,0.092,80.000,55119.000,1.000
191664.969,190410.594,208567.453,201462.359,193305.578,184707.578,193423.594,183287.078,0.039,1.001,0.190,-2.228,-0.336,0.153,80.000,55120.000,1.000
191683.031,190428.641,208581.922,201477.828,193321.406,184725.641,193443.094,183313.016,0.038,1.002,0.191,-2.319,-0.366,0.092,80.000,55121.000,1.000
191694.375,190415.594,208563.063,201472.469,193323.016,184710.266,193437.906,183334.734,0.039,1.002,0.189,-2.258,-0.275,0.061,80.000,55122.000,1.000
191670.156,190375.531,208526.859,201442.516,193292.172,184658.047,193387.391,183297.094,0.035,1.002,0.189,-2.228,-0.305,0.000,80.000,55123.000,1.000
191648.250,190370.266,208529.094,201437.859,193279.563,184662.438,193388.281,183267.234,0.037,1.001,0.190,-2.228,-0.214,-0.031,80.000,55124.000,1.000
191664.781,190400.938,208560.375,201464.688,193293.156,184686.750,193403.844,183273.500,0.037,1.000,0.190,-2.228,-0.305,-0.092,80.000,55125.000,1.000
191698.219,190430.703,208584.703,201488.734,193316.141,184714.469,193429.141,183304.516,0.036,0.999,0.191,-2.258,-0.305,-0.275,80.000,55126.000,1.000
191716.641,190419.266,208571.109,201483.109,193317.563,184688.359,193415.375,183327.047,0.036,0.999,0.191,-2.319,-0.336,-0.275,80.000,55127.000,1.000
191685.625,190373.578,208528.469,201444.297,193286.359,184640.266,193378.188,183293.172,0.038,1.000,0.194,-2.197,-0.275,-0.305,80.000,55128.000,1.000
191670.156,190382.422,208538.484,201444.922,193283.859,184655.734,193387.031,183269.922,0.039,0.999,0.191,-2.136,-0.275,-0.366,80.000,55129.000,1.000
191674.984,190405.844,208564.938,201466.109,193297.891,184693.906,193410.453,183276.625,0.040,1.000,0.191,-2.167,-0.214,-0.366,80.000,55130.000,1.000
191701.000,190431.156,208588.359,201491.781,193324.359,184725.906,193439.250,183311.047,0.039,1.001,0.193,-2.106,-0.214,-0.366,80.000,55131.000,1.000
191701.891,190408.266,208560.109,201472.109,193315.156,184689.250,193416.625,183320.172,0.040,1.004,0.192,-2.075,-0.244,-0.458,80.000,55132.000,1.000
191665.406,190366.594,208518.453,201435.188,193284.391,184638.656,193379.969,183287.531,0.039,1.003,0.191,-2.167,-0.183,-0.549,80.000,55133.000,1.000
191642.531,190370.797,208526.500,201436.609,193281.438,184662.438,193393.031,183270.547,0.039,1.003,0.195,-2.045,-0.244,-0.458,80.000,55134.000,1.000
191658.531,190407.813,208564.766,201472.016,193304.250,184709.813,193421.094,183285.031,0.038,1.003,0.193,-2.014,-0.214,-0.427,80.000,55135.000,1.000
191687.406,190434.547,208586.750,201498.219,193325.438,184729.047,193439.688,183316.500,0.040,1.004,0.192,-1.984,-0.122,-0.549,80.000,55136.000,1.000
191700.281,190415.688,208565.563,201486.063,193322.844,184703.203,193427.266,183333.125,0.039,1.004,0.194,-2.136,-0.183,-0.488,80.000,55137.000,1.000
191672.563,190377.688,208526.234,201446.094,193294.672,184661.266,193392.047,183294.141,0.040,1.004,0.192,-2.075,-0.092,-0.427,80.000,55138.000,1.000
191653.078,190389.125,208534.281,201445.469,193291.906,184678.703,193399.641,183271.891,0.039,1.003,0.192,-2.106,-0.122,-0.458,80.000,55139.000,1.000
191650.922,190406.563,208552.875,201462.000,193299.328,184711.063,193410.734,183270.094,0.036,1.003,0.193,-2.167,-0.214,-0.549,80.000,55140.000,1.000
191670.156,190415.688,208564.141,201475.500,193312.109,184712.234,193427.453,183295.047,0.037,1.002,0.195,-2.136,-0.305,-0.488,80.000,55141.000,1.000
191681.156,190397.266,208545.266,201469.609,193310.766,184680.219,193412.156,183316.859,0.036,1.001,0.195,-2.197,-0.305,-0.427,80.000,55142.000,1.000
191655.844,190366.781,208514.156,201443.672,193290.656,184650.625,193391.422,183299.328,0.036,1.000,0.195,-2.136,-0.305,-0.427,80.000,55143.000,1.000
191634.750,190372.406,208522.656,201445.016,193290.109,184672.266,193413.672,183285.656,0.034,1.002,0.194,-2.136,-0.427,-0.336,80.000,55144.000,1.000
191644.578,190400.938,208551.891,201462.813,193302.547,184700.516,193424.141,183289.047,0.036,1.001,0.192,-2.045,-0.397,-0.366,80.000,55145.000,1.000
191672.125,190420.594,208572.906,201481.859,193319.891,184715.547,193435.219,183313.016,0.036,1.003,0.196,-2.014,-0.427,-0.458,80.000,55146.000,1.000
191680.172,190400.938,208552.156,201474.438,193315.156,184678.438,193417.969,183330.453,0.034,1.002,0.193,-2.014,-0.458,-0.427,80.000,55147.000,1.000
191653.969,190362.219,208512.375,201438.578,193285.203,184625.781,193384.078,183299.609,0.034,1.002,0.193,-2.014,-0.519,-0.458,80.000,55148.000,1.000
191642.344,190368.922,208521.125,201437.063,193281.172,184647.594,193391.141,183274.844,0.036,1.002,0.192,-1.923,-0.458,-0.458,80.000,55149.000,1.000
191659.781,190396.109,208555.547,201466.297,193296.641,184678.609,193405.547,183283.063,0.035,1.002,0.193,-1.953,-0.519,-0.427,80.000,55150.000,1.000
191700.547,190435.078,208590.422,201500.984,193331.609,184729.484,193442.375,183320.609,0.036,1.002,0.195,-1.862,-0.610,-0.458,80.000,55151.000,1.000
191713.609,190423.641,208572.906,201496.516,193330.000,184703.656,193423.688,183334.656,0.035,1.001,0.195,-1.862,-0.610,-0.366,80.000,55152.000,1.000
191678.375,190374.563,208529.094,201453.781,193293.063,184643.125,193384.172,183298.891,0.037,1.002,0.193,-1.862,-0.702,-0.397,80.000,55153.000,1.000
191652.094,190370.531,208531.422,201444.031,193284.125,184655.906,193393.031,183274.922,0.036,1.003,0.195,-1.770,-0.824,-0.366,80.000,55154.000,1.000
191664.969,190403.078,208566.109,201471.844,193304.953,184702.672,193425.203,183287.891,0.036,1.002,0.192,-1.770,-0.854,-0.458,80.000,55155.000,1.000
191689.016,190427.031,208582.828,201492.313,193322.391,184720.813,193439.516,183318.203,0.037,1.000,0.193,-1.801,-0.763,-0.275,80.000,55156.000,1.000
191691.781,190405.047,208550.641,201472.469,193308.266,184683.438,193410.906,183318.641,0.039,1.000,0.191,-1.709,-0.702,-0.336,80.000,55157.000,1.000
191665.063,190370.000,208510.047,201436.703,193278.938,184649.375,193377.375,183283.953,0.040,1.001,0.189,-1.526,-0.671,-0.214,80.000,55158.000,1.000
191649.859,190377.063,208519.875,201438.484,193275.813,184665.656,193388.547,183267.422,0.040,1.001,0.193,-1.556,-0.641,-0.244,80.000,55159.000,1.000
191664.250,190408.703,208555.641,201467.547,193295.750,184704.359,193421.016,183282.797,0.041,1.002,0.188,-1.587,-0.641,-0.397,80.000,55160.000,1.000
191679.266,190416.844,208565.391,201478.719,193305.938,184716.875,193437.547,183304.781,0.042,1.004,0.188,-1.556,-0.671,-0.336,80.000,55161.000,1.000
191689.109,190401.375,208545.719,201473.359,193307.813,184695.875,193423.781,183331.703,0.041,1.001,0.188,-1.526,-0.671,-0.214,80.000,55162.000,1.000
191670.688,190376.344,208519.172,201451.453,193292.797,184664.313,193399.016,183314.797,0.038,1.004,0.189,-1.587,-0.641,-0.153,80.000,55163.000,1.000
191654.328,190383.047,208528.906,201448.688,193288.688,184678.438,193406.531,183284.578,0.039,1.004,0.189,-1.526,-0.458,-0.214,80.000,55164.000,1.000
191664.703,190406.828,208555.547,201459.953,193293.781,184688.094,193410.016,183274.297,0.039,1.003,0.190,-1.526,-0.519,-0.275,80.000,55165.000,1.000
191684.453,190416.750,208566.188,201469.516,193300.219,184686.391,193410.734,183286.453,0.038,1.002,0.190,-1.556,-0.488,-0.305,80.000,55166.000,1.000
191701.000,190402.453,208551.703,201469.609,193301.734,184661.000,193386.047,183310.328,0.038,1.000,0.191,-1.465,-0.427,-0.305,80.000,55167.000,1.000
191673.641,190371.688,208516.125,201434.734,193277.688,184627.828,193360.563,183279.125,0.038,1.000,0.189,-1.312,-0.397,-0.275,80.000,55168.000,1.000
191655.406,190376.172,208524.625,201435.188,193277.875,184651.172,193387.125,183261.156,0.038,0.999,0.190,-1.373,-0.427,-0.366,80.000,55169.000,1.000
191663.172,190396.109,208550.016,201452.609,193285.109,184667.969,193395.172,183266.516,0.040,1.001,0.191,-1.373,-0.397,-0.275,80.000,55170.000,1.000
191695.453,190426.500,208576.031,201478.906,193310.328,184703.734,193426.469,183300.938,0.040,1.001,0.192,-1.312,-0.397,-0.366,80.000,55171.000,1.000
191697.594,190398.422,208547.500,201459.141,193295.484,184651.344,193398.828,183303.453,0.043,1.002,0.192,-1.251,-0.427,-0.488,80.000,55172.000,1.000
191672.125,190367.672,208514.422,201432.500,193271.156,184618.359,193366.109,183274.656,0.041,1.002,0.190,-1.343,-0.275,-0.427,80.000,55173.000,1.000
191656.031,190381.797,208526.859,201439.031,193272.500,184648.750,193377.016,183252.844,0.041,1.002,0.191,-1.343,-0.214,-0.397,80.000,55174.000,1.000
191671.219,190410.938,208560.031,201471.844,193291.547,184685.047,193403.484,183266.797,0.042,1.002,0.193,-1.343,-0.214,-0.427,80.000,55175.000,1.000
191693.391,190428.281,208572.547,201485.875,193305.313,184695.609,193420.656,183292.266,0.040,1.005,0.193,-1.373,-0.153,-0.397,80.000,55176.000,1.000
191704.938,190410.594,208552.516,201478.547,193306.563,184683.625,193410.734,183311.406,0.041,1.004,0.193,-1.373,-0.183,-0.458,80.000,55177.000,1.000
191685.078,190383.672,208524.000,201456.281,193294.406,184667.797,193395.609,183298.531,0.040,1.002,0.190,-1.373,-0.214,-0.519,80.000,55178.000,1.000
191660.406,190383.859,208526.047,201448.328,193288.063,184680.766,193403.578,183278.953,0.040,1.002,0.192,-1.373,-0.061,-0.488,80.000,55179.000,1.000
191673.641,190410.672,208558.422,201472.016,193303.266,184710.531,193424.859,183285.297,0.039,1.004,0.191,-1.495,-0.061,-0.458,80.000,55180.000,1.000
191694.922,190431.422,208575.313,201489.359,193322.750,184736.641,193448.906,183314.891,0.038,1.005,0.193,-1.495,-0.092,-0.427,80.000,55181.000,1.000
191695.094,190398.516,208542.688,201465.484,193306.484,184685.859,193421.188,183318.016,0.038,1.003,0.194,-1.556,-0.061,-0.397,80.000,55182.000,1.000
191672.828,190366.594,208510.047,201441.703,193284.750,184641.063,193390.516,183302.828,0.038,1.003,0.193,-1.526,-0.092,-0.549,80.000,55183.000,1.000
191663.359,190380.453,208524.531,201448.766,193284.844,184660.203,193397.047,183280.922,0.039,1.004,0.192,-1.617,-0.122,-0.519,80.000,55184.000,1.000
191666.938,190404.063,208549.750,201463.531,193297.000,184702.219,193435.672,183281.719,0.040,1.005,0.195,-1.648,-0.183,-0.488,80.000,55185.000,1.000
191692.953,190425.609,208568.875,201481.766,193311.219,184713.125,193439.250,183303.453,0.037,1.002,0.194,-1.587,-0.122,-0.458,80.000,55186.000,1.000
191700.109,190401.906,208543.484,201463.969,193299.500,184666.188,193402.047,183308.281,0.037,1.002,0.190,-1.617,-0.214,-0.427,80.000,55187.000,1.000
191677.844,190371.688,208511.297,201435.094,193277.063,184634.453,193374.609,183280.109,0.039,1.003,0.191,-1.495,-0.183,-0.397,80.000,55188.000,1.000
191655.125,190369.188,208514.250,201430.984,193266.422,184639.359,193364.141,183258.469,0.037,1.002,0.190,-1.617,-0.275,-0.244,80.000,55189.000,1.000
191669.344,190393.234,208547.859,201455.031,193284.750,184676.203,193399.016,183262.859,0.037,1.001,0.188,-1.587,-0.305,-0.336,80.000,55190.000,1.000
191695.813,190417.109,208568.344,201476.406,193305.859,184703.016,193427.000,183287.000,0.037,1.002,0.190,-1.495,-0.214,-0.275,80.000,55191.000,1.000
191709.047,190411.750,208553.500,201474.078,193307.281,184676.734,193401.969,183307.922,0.035,1.000,0.189,-1.434,-0.275,-0.336,80.000,55192.000,1.000
191679.719,190381.969,208519.344,201442.328,193286.625,184658.047,193374.250,183282.797,0.035,0.998,0.191,-1.373,-0.397,-0.214,80.000,55193.000,1.000
191662.016,190378.219,208525.609,201439.734,193279.297,184660.109,193379.078,183256.156,0.036,0.998,0.191,-1.343,-0.397,-0.305,80.000,55194.000,1.000
191671.844,190400.750,208553.594,201461.297,193291.547,184677.625,193405.719,183258.203,0.035,0.998,0.189,-1.373,-0.458,-0.275,80.000,55195.000,1.000
191690.453,190419.531,208567.172,201470.141,193308.000,184704.547,193425.297,183279.672,0.038,0.999,0.192,-1.373,-0.519,-0.214,80.000,55196.000,1.000
191707.609,190417.469,208554.656,201469.250,193315.688,184694.703,193417.438,183307.734,0.037,1.001,0.191,-1.221,-0.397,-0.305,80.000,55197.000,1.000
191674.000,190372.406,208509.594,201432.500,193275.984,184629.438,193355.922,183269.375,0.036,1.000,0.190,-1.129,-0.488,-0.275,80.000,55198.000,1.000
191664.516,190380.359,208520.500,201441.625,193274.922,184653.672,193376.656,183251.500,0.037,0.999,0.191,-1.099,-0.610,-0.397,80.000,55199.000,1.000
191691.078,190426.047,208566.469,201488.734,193308.984,184723.406,193424.047,183285.297,0.038,0.999,0.189,-1.099,-0.641,-0.458,80.000,55200.000,1.000
191708.859,190434.094,208577.813,201498.844,193316.141,184708.656,193430.219,183304.344,0.039,0.997,0.188,-1.068,-0.641,-0.397,80.000,55201.000,1.000
191707.250,190401.375,208543.031,201463.078,193296.641,184656.797,193402.406,183299.688,0.040,0.998,0.189,-1.038,-0.641,-0.336,80.000,55202.000,1.000
191669.703,190356.859,208497.625,201423.297,193264.188,184620.500,193361.016,183270.188,0.041,0.999,0.188,-0.916,-0.580,-0.397,80.000,55203.000,1.000
191660.234,190377.328,208517.375,201438.938,193276.438,184661.094,193389.984,183268.219,0.041,0.999,0.186,-0.885,-0.549,-0.427,80.000,55204.000,1.000
191656.297,190388.500,208531.859,201448.766,193275.719,184661.719,193394.281,183269.375,0.039,0.999,0.190,-0.854,-0.641,-0.488,80.000,55205.000,1.000
191680.875,190411.922,208549.203,201463.438,193292.172,184684.063,193408.672,183283.234,0.037,1.000,0.190,-0.763,-0.580,-0.458,80.000,55206.000,1.000
191694.375,190401.641,208533.031,201459.234,193297.453,184674.953,193397.141,183306.484,0.038,1.000,0.190,-0.732,-0.519,-0.519,80.000,55207.000,1.000
191664.344,190364.188,208496.547,201431.344,193276.078,184645.359,193375.234,183288.156,0.038,1.002,0.187,-0.641,-0.580,-0.488,80.000,55208.000,1.000
191646.094,190363.016,208501.828,201428.656,193265.078,184642.938,193369.234,183254.188,0.037,1.003,0.189,-0.519,-0.488,-0.549,80.000,55209.000,1.000
191660.500,190395.125,208535.609,201451.188,193282.703,184679.688,193402.953,183262.406,0.036,1.003,0.188,-0.610,-0.366,-0.671,80.000,55210.000,1.000
191692.063,190421.047,208561.984,201478.281,193307.734,184701.953,193433.344,183302.375,0.038,1.005,0.189,-0.702,-0.427,-0.702,80.000,55211.000,1.000
191693.484,190391.188,208531.766,201456.547,193290.391,184645.531,193386.500,183302.188,0.038,1.006,0.187,-0.824,-0.549,-0.671,80.000,55212.000,1.000
191666.484,190357.031,208497.625,201427.141,193265.344,184614.156,193347.344,183262.234,0.038,1.006,0.185,-0.854,-0.549,-0.702,80.000,55213.000,1.000
191655.047,190372.859,208515.328,201434.734,193272.688,184658.047,193371.750,183257.141,0.038,1.007,0.189,-0.946,-0.366,-0.519,80.000,55214.000,1.000
191660.500,190401.469,208540.719,201446.625,193284.391,184688.359,193405.266,183262.766,0.039,1.005,0.187,-0.946,-0.458,-0.580,80.000,55215.000,1.000
191685.625,190420.328,208557.703,201463.969,193300.750,184703.469,193425.563,183286.016,0.039,1.006,0.190,-1.007,-0.458,-0.671,80.000,55216.000,1.000
191700.734,190403.250,208539.734,201461.016,193302.094,184685.500,193413.500,183311.313,0.036,1.007,0.188,-1.190,-0.427,-0.671,80.000,55217.000,1.000
191671.844,190364.188,208501.109,201429.734,193275.281,184646.703,193379.531,183280.828,0.037,1.008,0.191,-1.251,-0.427,-0.824,80.000,55218.000,1.000
191662.016,190368.563,208513.625,201435.094,193270.453,184648.938,193377.016,183260.172,0.037,1.008,0.190,-1.373,-0.488,-0.946,80.000,55219.000,1.000
191673.188,190396.734,208543.313,201458.156,193285.203,184686.484,193404.641,183270.094,0.035,1.009,0.190,-1.434,-0.427,-0.977,80.000,55220.000,1.000
191697.422,190420.875,208561.281,201476.750,193305.500,184711.063,193431.734,183297.813,0.033,1.008,0.189,-1.526,-0.458,-1.099,80.000,55221.000,1.000
191709.484,190405.047,208542.859,201473.359,193303.266,184672.625,193403.938,183312.297,0.034,1.008,0.191,-1.648,-0.397,-1.190,80.000,55222.000,1.000
191681.156,190362.031,208503.703,201434.016,193275.188,184625.953,193373.625,183281.266,0.034,1.007,0.190,-1.801,-0.580,-1.190,80.000,55223.000,1.000
191666.578,190366.422,208512.453,201436.250,193267.938,184627.031,193366.828,183257.406,0.034,1.003,0.191,-1.831,-0.610,-1.129,80.000,55224.000,1.000
191691.781,190412.203,208559.844,201477.922,193299.859,184684.422,193407.594,183276.094,0.034,1.006,0.193,-1.923,-0.702,-1.251,80.000,55225.000,1.000
191708.063,190426.859,208574.234,201487.484,193312.016,184699.531,193421.906,183293.078,0.033,1.004,0.189,-1.984,-0.732,-1.251,80.000,55226.000,1.000
191710.563,190410.938,208551.078,201467.906,193307.109,184677.547,193401.156,183305.859,0.034,1.002,0.189,-1.984,-0.732,-1.068,80.000,55227.000,1.000
191682.219,190376.078,208514.609,201438.484,193279.031,184621.750,193352.344,183278.328,0.034,1.001,0.189,-1.923,-0.793,-1.068,80.000,55228.000,1.000
191665.688,190376.797,208523.375,201438.766,193274.828,184624.875,193363.250,183254.891,0.035,1.001,0.189,-1.923,-0.824,-1.099,80.000,55229.000,1.000
191675.344,190404.328,208555.641,201463.078,193295.750,184679.422,193405.547,183267.859,0.036,1.000,0.189,-1.892,-0.732,-1.007,80.000,55230.000,1.000
191697.688,190426.234,208573.703,201479.891,193313.188,184699.266,193420.469,183294.422,0.037,1.001,0.186,-1.831,-0.763,-0.885,80.000,55231.000,1.000
191708.328,190411.031,208553.047,201471.750,193310.500,184663.500,193409.297,183312.031,0.035,1.000,0.190,-1.770,-0.854,-0.732,80.000,55232.000,1.000
191687.938,190382.250,208522.031,201444.484,193289.766,184638.109,193374.250,183288.875,0.036,1.000,0.189,-1.770,-0.854,-0.641,80.000,55233.000,1.000
191672.656,190386.891,208531.859,201450.469,193288.594,184661.531,193388.375,183274.297,0.034,0.999,0.191,-1.740,-0.916,-0.580,80.000,55234.000,1.000
191685.438,190410.859,208564.047,201471.750,193305.234,184697.297,193428.344,183281.719,0.035,1.000,0.189,-1.801,-0.977,-0.549,80.000,55235.000,1.000
191705.922,190428.922,208577.906,201483.469,193317.031,184715.094,193431.641,183296.656,0.035,1.001,0.188,-1.770,-0.977,-0.427,80.000,55236.000,1.000
191713.609,190413.531,208553.938,201470.313,193311.125,184683.438,193409.391,183309.891,0.033,1.002,0.190,-1.770,-1.038,-0.397,80.000,55237.000,1.000
191690.359,190380.719,208519.078,201438.766,193285.281,184644.281,193369.781,183273.578,0.034,1.001,0.192,-1.678,-1.099,-0.305,80.000,55238.000,1.000
191674.078,190385.469,208530.875,201440.094,193285.469,184662.703,193383.281,183257.313,0.036,1.001,0.191,-1.587,-1.038,-0.336,80.000,55239.000,1.000
191688.484,190420.234,208568.250,201472.375,193310.953,184710.172,193429.594,183281.453,0.034,0.999,0.191,-1.495,-1.007,-0.336,80.000,55240.000,1.000
191723.344,190449.922,208596.500,201502.422,193336.969,184732.609,193452.391,183320.078,0.036,1.000,0.192,-1.434,-0.885,-0.305,80.000,55241.000,1.000
191735.328,190439.109,208576.203,201493.922,193334.906,184705.969,193432.719,183331.875,0.036,0.998,0.189,-1.617,-0.916,-0.336,80.000,55242.000,1.000
191697.156,190389.844,208523.453,201445.281,193289.313,184627.563,193368.172,183287.266,0.037,1.000,0.190,-1.495,-1.007,-0.214,80.000,55243.000,1.000
191669.078,190376.609,208520.781,201434.563,193273.938,184628.813,193371.031,183255.250,0.037,1.000,0.191,-1.526,-0.946,-0.122,80.000,55244.000,1.000
191683.031,190407.906,208556.453,201464.063,193296.828,184678.172,193414.031,183271.438,0.036,0.999,0.190,-1.404,-0.885,-0.214,80.000,55245.000,1.000
191711.719,190434.906,208582.109,201489.719,193323.469,184711.969,193449.344,183308.719,0.036,1.002,0.188,-1.526,-0.854,-0.427,80.000,55246.000,1.000
191710.750,190402.547,208549.750,201466.469,193304.516,184665.563,193408.219,183306.938,0.038,1.002,0.186,-1.526,-0.824,-0.397,80.000,55247.000,1.000
191684.094,190368.203,208513.719,201436.703,193282.250,184631.500,193380.063,183290.922,0.039,1.001,0.192,-1.495,-0.763,-0.397,80.000,55248.000,1.000
191674.000,190386.984,208531.141,201450.109,193285.109,184647.500,193375.328,183277.969,0.038,1.002,0.192,-1.495,-0.702,-0.366,80.000,55249.000,1.000
191679.984,190410.672,208557.969,201466.469,193294.672,184680.766,193383.094,183264.281,0.040,1.002,0.192,-1.648,-0.702,-0.397,80.000,55250.000,1.000
191692.688,190416.391,208565.391,201465.484,193302.281,184670.484,193410.641,183281.000,0.040,1.000,0.191,-1.587,-0.671,-0.397,80.000,55251.000,1.000
191708.156,190404.781,208551.000,201463.797,193306.297,184650.266,193406.344,183307.734,0.039,1.001,0.189,-1.587,-0.732,-0.366,80.000,55252.000,1.000
191691.250,190376.516,208524.000,201445.469,193293.328,184643.656,193384.797,183288.250,0.041,1.001,0.189,-1.526,-0.580,-0.397,80.000,55253.000,1.000
191667.016,190374.563,208524.625,201435.094,193285.016,184656.172,193388.016,183261.969,0.042,1.001,0.188,-1.495,-0.458,-0.427,80.000,55254.000,1.000
191682.578,190410.500,208561.094,201465.484,193306.203,184688.359,193418.141,183272.328,0.039,1.003,0.187,-1.556,-0.488,-0.366,80.000,55255.000,1.000
191711.188,190436.328,208584.875,201494.734,193330.797,184715.625,193444.797,183307.563,0.041,1.002,0.193,-1.526,-0.366,-0.336,80.000,55256.000,1.000
191722.359,190422.656,208565.844,201488.828,193327.938,184688.359,193416.531,183327.766,0.042,1.003,0.190,-1.495,-0.214,-0.275,80.000,55257.000,1.000
191684.719,190379.469,208520.234,201446.984,193293.156,184638.656,193374.422,183293.250,0.041,1.001,0.191,-1.495,-0.244,-0.214,80.000,55258.000,1.000
191654.234,190371.969,208516.750,201438.484,193279.031,184645.172,193384.438,183266.250,0.039,1.001,0.191,-1.465,-0.061,-0.244,80.000,55259.000,1.000
191661.563,190398.969,208541.422,201450.656,193282.609,184669.047,193382.469,183254.453,0.038,1.002,0.193,-1.434,-0.061,-0.183,80.000,55260.000,1.000
191689.375,190417.109,208560.469,201466.750,193297.266,184690.328,193399.547,183272.156,0.039,1.003,0.189,-1.495,0.031,-0.183,80.000,55261.000,1.000
191706.984,190412.203,208549.469,201463.797,193303.797,184679.516,193398.484,183298.266,0.037,1.003,0.187,-1.434,-0.031,-0.244,80.000,55262.000,1.000
191675.781,190358.547,208506.109,201433.391,193268.391,184599.766,193358.250,183275.188,0.038,1.003,0.188,-1.434,0.000,-0.244,80.000,55263.000,1.000
191648.063,190352.031,208500.484,201416.859,193252.125,184607.625,193357.266,183240.766,0.038,1.002,0.190,-1.434,0.061,-0.214,80.000,55264.000,1.000
191667.828,190395.922,208542.141,201452.797,193283.234,184675.844,193409.031,183261.328,0.037,1.003,0.191,-1.404,0.061,-0.214,80.000,55265.000,1.000
191704.844,190430.078,208573.969,201487.672,193311.656,184702.047,193430.484,183296.391,0.036,1.002,0.189,-1.434,0.061,-0.183,80.000,55266.000,1.000
191703.406,190398.516,208540.984,201468.266,193294.500,184650.547,193383.813,183298.531,0.036,1.003,0.190,-1.465,0.092,-0.336,80.000,55267.000,1.000
191677.656,190359.266,208504.953,201438.578,193269.906,184611.828,193351.547,183272.594,0.035,1.005,0.189,-1.404,0.061,-0.366,80.000,55268.000,1.000
191654.063,190359.359,208510.938,201434.016,193264.719,184631.672,193367.906,183255.344,0.034,1.007,0.192,-1.556,-0.061,-0.427,80.000,55269.000,1.000
191674.078,190402.094,208554.125,201464.156,193290.297,184684.969,193401.422,183270.906,0.033,1.007,0.193,-1.526,-0.031,-0.366,80.000,55270.000,1.000
191701.984,190424.891,208573.797,201476.938,193304.781,184683.891,193411.625,183291.203,0.032,1.006,0.190,-1.495,-0.061,-0.488,80.000,55271.000,1.000
191705.469,190401.906,208547.688,201459.688,193296.016,184653.219,193388.469,183298.531,0.032,1.005,0.191,-1.556,-0.122,-0.366,80.000,55272.000,1.000
191674.000,190361.688,208507.453,201427.578,193270.984,184607.891,193365.938,183280.828,0.036,1.005,0.185,-1.617,-0.122,-0.305,80.000,55273.000,1.000
191659.953,190369.813,208518.625,201436.250,193275.984,184641.063,193390.438,183278.328,0.036,1.002,0.184,-1.556,-0.183,-0.366,80.000,55274.000,1.000
191676.766,190407.375,208553.766,201462.000,193294.766,184692.109,193407.516,183273.578,0.037,1.000,0.182,-1.556,-0.153,-0.336,80.000,55275.000,1.000
191690.266,190417.109,208561.547,201467.719,193299.141,184695.156,193415.641,183277.969,0.038,1.000,0.186,-1.495,-0.214,-0.214,80.000,55276.000,1.000
191694.922,190396.547,208536.516,201457.000,193291.453,184655.906,193392.844,183294.859,0.036,0.999,0.186,-1.373,-0.244,-0.122,80.000,55277.000,1.000
191672.391,190366.953,208503.703,201430.719,193273.125,184637.844,193369.234,183275.734,0.035,0.999,0.189,-1.373,-0.366,-0.061,80.000,55278.000,1.000
191645.469,190356.672,208499.234,201414.625,193248.625,184616.297,193337.594,183228.438,0.034,1.000,0.189,-1.312,-0.305,-0.092,80.000,55279.000,1.000
191661.922,190389.391,208537.938,201442.953,193270.984,184655.906,193380.422,183247.484,0.035,1.002,0.188,-1.373,-0.305,-0.153,80.000,55280.000,1.000
191696.078,190420.875,208566.469,201473.094,193300.484,184696.234,193418.859,183285.297,0.035,0.999,0.186,-1.373,-0.305,-0.122,80.000,55281.000,1.000
191702.969,190401.734,208540.891,201462.813,193292.172,184661.266,193387.656,183290.484,0.035,0.998,0.188,-1.343,-0.366,-0.092,80.000,55282.000,1.000
191673.109,190362.484,208503.875,201429.109,193266.422,184609.594,193352.797,183273.047,0.034,0.999,0.188,-1.190,-0.366,-0.183,80.000,55283.000,1.000
191645.750,190356.234,208504.063,201418.109,193253.188,184606.906,193346.984,183242.203,0.034,0.999,0.186,-1.190,-0.397,-0.305,80.000,55284.000,1.000
191670.422,190396.547,208547.328,201456.734,193283.859,184662.969,193392.047,183263.125,0.035,0.999,0.185,-1.038,-0.458,-0.183,80.000,55285.000,1.000
191692.328,190415.953,208561.453,201468.266,193299.953,184685.141,193414.219,183286.453,0.033,1.000,0.184,-1.099,-0.488,-0.275,80.000,55286.000,1.000
191696.438,190395.391,208535.703,201451.906,193293.250,184659.031,193399.547,183299.516,0.034,0.999,0.184,-1.038,-0.458,-0.336,80.000,55287.000,1.000
191675.875,190364.094,208505.391,201426.688,193272.328,184626.484,193365.391,183275.281,0.034,1.003,0.186,-1.007,-0.610,-0.397,80.000,55288.000,1.000
191659.688,190366.781,208514.875,201426.328,193266.063,184634.094,193362.984,183253.016,0.034,1.003,0.184,-0.977,-0.549,-0.488,80.000,55289.000,1.000
191667.109,190392.797,208544.109,201449.938,193279.750,184659.750,193389.000,183260.703,0.033,1.004,0.186,-0.946,-0.641,-0.488,80.000,55290.000,1.000
191706.266,190433.828,208579.250,201487.750,193313.813,184694.078,193420.375,183306.125,0.034,1.006,0.185,-1.068,-0.610,-0.580,80.000,55291.000,1.000
191724.953,190427.391,208566.469,201484.266,193319.625,184677.453,193404.828,183325.438,0.038,1.004,0.186,-1.190,-0.763,-0.580,80.000,55292.000,1.000
191691.156,190374.906,208519.609,201444.031,193283.859,184618.625,193366.656,183288.875,0.037,1.003,0.186,-1.251,-0.671,-0.488,80.000,55293.000,1.000
191661.391,190363.297,208515.859,201426.234,193269.281,184626.844,193373.000,183255.969,0.037,1.004,0.185,-1.282,-0.610,-0.458,80.000,55294.000,1.000
191681.234,190401.641,208557.609,201458.250,193294.406,184676.469,193412.516,183268.750,0.037,1.004,0.183,-1.282,-0.580,-0.397,80.000,55295.000,1.000
191720.391,190437.594,208588.813,201490.609,193320.609,184697.297,193427.094,183298.438,0.038,1.003,0.183,-1.343,-0.519,-0.366,80.000,55296.000,1.000
191731.391,190424.625,208569.859,201485.609,193319.531,184669.766,193399.641,183318.375,0.037,1.003,0.184,-1.495,-0.549,-0.336,80.000,55297.000,1.000
191699.297,190385.375,208526.938,201444.219,193287.172,184624.703,193356.016,183276.625,0.037,1.005,0.186,-1.556,-0.702,-0.427,80.000,55298.000,1.000
191678.203,190385.281,208530.344,201436.438,193282.875,184646.422,193381.844,183254.188,0.038,1.006,0.183,-1.587,-0.702,-0.275,80.000,55299.000,1.000
191697.328,190423.016,208567.719,201468.438,193305.938,184696.938,193411.797,183269.031,0.039,1.006,0.183,-1.709,-0.641,-0.305,80.000,55300.000,1.000
191727.109,190448.859,208590.328,201496.609,193325.438,184709.016,193423.516,183300.313,0.039,1.005,0.185,-1.709,-0.549,-0.183,80.000,55301.000,1.000
191717.531,190406.469,208546.797,201462.813,193298.703,184639.641,193391.234,183299.688,0.036,1.005,0.185,-1.801,-0.519,-0.122,80.000,55302.000,1.000
191689.641,190367.938,208506.828,201429.375,193268.297,184598.859,193346.531,183266.797,0.039,1.004,0.187,-1.862,-0.549,-0.092,80.000,55303.000,1.000
191676.141,190374.109,208519.078,201434.016,193269.109,184630.875,193358.516,183248.188,0.038,1.004,0.186,-1.953,-0.519,0.031,80.000,55304.000,1.000
191684.906,190399.672,208549.469,201455.922,193286.188,184675.031,193399.016,183261.609,0.038,1.005,0.185,-2.136,-0.458,0.183,80.000,55305.000,1.000
191709.406,190426.141,208568.078,201469.250,193304.156,184698.375,193424.047,183287.797,0.038,1.003,0.187,-2.136,-0.427,0.122,80.000,55306.000,1.000
191723.797,190417.734,208552.156,201466.391,193307.641,184679.063,193413.953,183315.250,0.038,1.002,0.188,-2.258,-0.458,0.092,80.000,55307.000,1.000
191690.891,190373.031,208506.563,201425.891,193270.984,184614.516,193361.469,183272.063,0.039,1.000,0.186,-2.258,-0.488,0.153,80.000,55308.000,1.000
191671.766,190379.828,208514.609,201425.344,193266.609,184634.188,193358.156,183248.188,0.040,1.000,0.186,-2.319,-0.458,0.122,80.000,55309.000,1.000
191698.141,190423.281,208563.688,201469.969,193301.031,184699.266,193413.141,183275.734,0.038,1.002,0.187,-2.167,-0.458,0.061,80.000,55310.000,1.000
191722.453,190438.578,208581.656,201489.281,193318.094,184704.547,193442.469,183305.859,0.036,1.001,0.186,-2.136,-0.336,0.092,80.000,55311.000,1.000
191730.859,190423.109,208557.516,201475.141,193308.438,184665.391,193411.438,183312.125,0.034,1.000,0.187,-2.075,-0.305,0.061,80.000,55312.000,1.000
191700.734,190383.406,208515.500,201436.703,193273.578,184615.406,193359.406,183273.938,0.037,1.002,0.186,-2.075,-0.305,0.122,80.000,55313.000,1.000
191684.016,190387.078,208525.063,201437.859,193271.078,184637.938,193364.859,183251.500,0.039,1.004,0.186,-2.167,-0.336,-0.031,80.000,55314.000,1.000
191689.469,190403.609,208551.891,201454.766,193283.766,184670.125,193396.063,183258.469,0.038,1.004,0.188,-2.136,-0.305,-0.183,80.000,55315.000,1.000
191713.781,190423.453,208572.453,201476.938,193306.828,184693.375,193421.719,183294.141,0.038,1.004,0.187,-2.197,-0.275,-0.061,80.000,55316.000,1.000
191718.703,190410.672,208548.406,201463.969,193305.406,184666.641,193409.031,183307.656,0.039,1.002,0.185,-2.197,-0.183,-0.122,80.000,55317.000,1.000
191692.328,190378.750,208513.359,201432.594,193281.891,184631.766,193369.594,183276.719,0.039,1.003,0.184,-2.258,-0.122,-0.122,80.000,55318.000,1.000
191674.438,190383.500,208522.922,201432.953,193276.703,184639.547,193370.766,183251.672,0.040,1.003,0.188,-2.136,-0.153,-0.122,80.000,55319.000,1.000
191681.688,190410.406,208552.688,201453.875,193289.938,184678.531,193400.719,183256.328,0.040,1.001,0.187,-2.197,-0.153,-0.244,80.000,55320.000,1.000
191714.313,190440.813,208577.906,201478.281,193314.703,184705.891,193434.328,183291.016,0.039,1.002,0.189,-2.075,-0.092,-0.244,80.000,55321.000,1.000
191721.109,190420.156,208550.719,201459.406,193303.172,184666.016,193399.188,183298.344,0.039,1.002,0.188,-2.075,-0.031,-0.305,80.000,55322.000,1.000
191696.531,190385.109,208515.047,201425.969,193277.250,184625.234,193362.000,183269.297,0.038,1.000,0.186,-1.984,-0.031,-0.397,80.000,55323.000,1.000
191687.859,190396.109,208532.578,201438.672,193282.969,184654.750,193383.188,183255.969,0.038,1.001,0.189,-1.953,-0.031,-0.488,80.000,55324.000,1.000
191701.797,190428.563,208568.078,201467.547,193302.281,184694.172,193417.609,183265.984,0.039,1.001,0.189,-2.045,0.000,-0.397,80.000,55325.000,1.000
191719.328,190436.609,208578.438,201480.875,193310.328,184699.094,193418.422,183284.047,0.038,1.003,0.188,-2.014,0.153,-0.397,80.000,55326.000,1.000
191723.438,190412.469,208550.641,201467.641,193300.484,184663.953,193386.766,183297.094,0.036,1.004,0.189,-1.984,0.061,-0.488,80.000,55327.000,1.000
191702.609,190380.359,208519.250,201443.594,193279.922,184621.656,193359.938,183281.547,0.039,1.003,0.188,-2.014,0.122,-0.519,80.000,55328.000,1.000
191683.203,190378.484,208523.547,201435.813,193268.391,184628.906,193364.328,183252.938,0.038,1.003,0.189,-2.045,0.031,-0.427,80.000,55329.000,1.000
191699.297,190415.594,208560.656,201463.703,193288.328,184677.625,193402.234,183263.125,0.038,1.001,0.192,-2.106,-0.031,-0.427,80.000,55330.000,1.000
191734.609,190446.703,208589.266,201493.031,193315.234,184707.141,193426.375,183298.078,0.037,1.002,0.191,-2.075,-0.031,-0.427,80.000,55331.000,1.000
191738.906,190426.594,208562.969,201474.344,193306.484,184672.266,193406.344,183306.750,0.037,1.001,0.191,-1.923,0.092,-0.458,80.000,55332.000,1.000
191714.047,190398.250,208530.703,201445.828,193287.250,184638.656,193374.422,183284.672,0.034,1.002,0.189,-2.045,-0.092,-0.519,80.000,55333.000,1.000
191684.719,190387.344,208528.469,201432.500,193270.719,184625.063,193365.844,183243.547,0.035,1.003,0.191,-1.953,-0.153,-0.397,80.000,55334.000,1.000
191700.016,190417.203,208563.688,201459.500,193291.719,184673.422,193402.688,183251.953,0.035,1.000,0.190,-1.862,-0.092,-0.275,80.000,55335.000,1.000
191737.203,190452.078,208596.766,201493.922,193325.516,184715.453,193434.953,183296.734,0.034,1.001,0.190,-1.923,-0.183,-0.275,80.000,55336.000,1.000
191757.594,190445.188,208587.469,201502.328,193331.688,184685.859,193411.891,183326.875,0.034,1.002,0.189,-1.892,-0.183,-0.305,80.000,55337.000,1.000
191714.406,190393.063,208535.078,201451.094,193293.688,184627.391,193368.438,183285.031,0.036,1.000,0.189,-1.862,-0.183,-0.275,80.000,55338.000,1.000
191690.813,190391.813,208538.922,201446.094,193291.016,184647.141,193384.531,183265.000,0.036,1.003,0.191,-1.831,-0.305,-0.183,80.000,55339.000,1.000
191708.156,190432.219,208579.875,201482.656,193322.297,184704.281,193434.953,183290.031,0.035,1.001,0.190,-1.740,-0.366,-0.336,80.000,55340.000,1.000
191730.047,190449.203,208594.625,201495.891,193335.797,184719.109,193441.125,183306.047,0.037,1.000,0.187,-1.709,-0.275,-0.183,80.000,55341.000,1.000
191725.141,190418.813,208557.609,201470.500,193312.297,184664.313,193384.000,183298.531,0.039,1.000,0.190,-1.740,-0.336,-0.092,80.000,55342.000,1.000
191692.688,190377.953,208514.156,201435.453,193282.516,184619.875,193353.156,183272.328,0.036,1.001,0.191,-1.678,-0.488,-0.092,80.000,55343.000,1.000
191679.094,190387.609,208527.031,201440.906,193283.047,184637.219,193374.156,183264.281,0.037,1.002,0.191,-1.740,-0.549,-0.061,80.000,55344.000,1.000
191701.625,190434.906,208572.359,201477.109,193312.734,184696.500,193414.031,183283.781,0.039,1.002,0.191,-1.831,-0.580,-0.122,80.000,55345.000,1.000
191716.547,190449.203,208580.500,201482.844,193322.656,184716.875,193434.594,183302.109,0.038,1.000,0.187,-1.648,-0.671,-0.183,80.000,55346.000,1.000
191720.484,190423.734,208549.203,201462.719,193310.500,184682.109,193412.781,183310.063,0.039,0.999,0.189,-1.648,-0.580,-0.122,80.000,55347.000,1.000
191694.109,190385.641,208512.016,201434.469,193286.094,184647.594,193375.766,183287.531,0.038,1.000,0.188,-1.648,-0.549,-0.031,80.000,55348.000,1.000
191665.953,190382.156,208513.531,201426.516,193275.641,184661.094,193378.453,183261.609,0.039,1.002,0.189,-1.617,-0.549,-0.092,80.000,55349.000,1.000
191674.000,190406.031,208544.828,201453.781,193291.641,184689.438,193413.672,183270.719,0.040,1.003,0.191,-1.556,-0.519,-0.092,80.000,55350.000,1.000
191700.109,190425.063,208564.047,201473.531,193308.094,184695.516,193428.078,183296.297,0.038,1.002,0.188,-1.617,-0.488,-0.153,80.000,55351.000,1.000
191715.750,190414.516,208549.469,201468.359,193309.078,184669.766,193403.656,183313.453,0.037,1.000,0.189,-1.556,-0.458,-0.122,80.000,55352.000,1.000
191688.922,190373.750,208510.578,201431.609,193276.797,184613.172,193354.047,183277.422,0.038,1.002,0.190,-1.587,-0.397,-0.153,80.000,55353.000,1.000
191684.641,190392.891,208530.969,201448.141,193287.797,184649.016,193383.016,183274.563,0.040,1.002,0.189,-1.648,-0.458,-0.183,80.000,55354.000,1.000
191703.500,190430.531,208572.359,201485.156,193315.594,184701.406,193428.969,183297.359,0.040,1.003,0.190,-1.556,-0.458,-0.183,80.000,55355.000,1.000
191712.984,190433.656,208571.828,201473.359,193309.156,184696.313,193419.578,183288.688,0.039,1.001,0.189,-1.678,-0.397,-0.153,80.000,55356.000,1.000
191715.750,190410.406,208541.703,201455.750,193295.922,184652.594,193394.094,183297.188,0.040,1.001,0.189,-1.648,-0.275,-0.183,80.000,55357.000,1.000
191694.828,190378.844,208508.797,201429.734,193273.672,184611.469,193361.016,183273.047,0.041,1.002,0.193,-1.617,-0.366,-0.092,80.000,55358.000,1.000
191682.406,190385.281,208520.234,201434.016,193271.969,184635.703,193364.141,183250.250,0.040,1.001,0.189,-1.617,-0.336,-0.122,80.000,55359.000,1.000
191688.391,190413.266,208550.906,201456.641,193289.219,184680.047,193398.563,183263.125,0.041,1.000,0.189,-1.648,-0.305,-0.061,80.000,55360.000,1.000
191708.156,190435.891,208568.344,201473.453,193309.250,184710.719,193431.828,183293.172,0.037,1.003,0.188,-1.709,-0.244,-0.183,80.000,55361.000,1.000
191729.969,190428.203,208557.344,201476.938,193313.453,184678.531,193413.766,183319.719,0.038,1.002,0.192,-1.740,-0.336,-0.061,80.000,55362.000,1.000
191696.703,190380.359,208512.188,201434.734,193277.156,184613.266,193359.938,183281.984,0.040,1.000,0.190,-1.709,-0.275,-0.092,80.000,55363.000,1.000
191677.578,190385.828,208522.734,201432.406,193277.328,184642.672,193378.000,183260.797,0.041,1.003,0.189,-1.740,-0.214,-0.122,80.000,55364.000,1.000
191689.547,190415.953,208556.984,201456.109,193293.781,184680.047,193399.109,183270.641,0.041,1.003,0.190,-1.862,-0.153,-0.214,80.000,55365.000,1.000
191714.406,190437.141,208575.484,201472.281,193314.172,184714.563,193431.922,183296.031,0.040,1.002,0.188,-2.014,-0.122,-0.214,80.000,55366.000,1.000
191732.016,190431.328,208561.813,201469.156,193316.484,184689.250,193407.859,183311.578,0.040,1.004,0.190,-2.014,-0.122,-0.183,80.000,55367.000,1.000
191701.172,190394.500,208521.938,201438.844,193289.141,184636.688,193366.563,183286.813,0.038,1.003,0.190,-1.984,-0.183,-0.061,80.000,55368.000,1.000
191681.328,190394.219,208525.953,201439.828,193282.781,184652.328,193370.844,183260.531,0.038,1.005,0.190,-2.075,-0.183,-0.061,80.000,55369.000,1.000
191680.344,190410.766,208547.688,201453.250,193294.047,184683.438,193407.859,183269.922,0.037,1.002,0.188,-2.106,-0.122,-0.183,80.000,55370.000,1.000
191698.938,190428.016,208564.672,201467.719,193313.906,184710.438,193442.469,183298.438,0.038,1.002,0.186,-2.045,-0.122,-0.244,80.000,55371.000,1.000
191700.188,190403.344,208536.781,201452.344,193303.531,184673.344,193412.422,183302.016,0.041,1.003,0.186,-2.045,-0.122,-0.183,80.000,55372.000,1.000
191684.813,190380.813,208510.219,201434.563,193289.672,184647.500,193386.938,183290.125,0.040,1.005,0.187,-2.014,-0.061,-0.244,80.000,55373.000,1.000
191668.547,190386.359,208516.391,201430.891,193279.656,184643.828,193370.406,183259.719,0.038,1.003,0.191,-2.045,-0.153,-0.214,80.000,55374.000,1.000
191687.500,190423.453,208555.281,201461.016,193303.969,184688.266,193406.344,183279.313,0.038,1.003,0.191,-2.045,-0.092,-0.183,80.000,55375.000,1.000
191706.188,190435.000,208568.078,201475.063,193317.828,184700.781,193436.922,183303.891,0.037,1.004,0.191,-2.075,-0.092,-0.244,80.000,55376.000,1.000
191712.266,190410.047,208540.797,201457.719,193306.125,184664.938,193410.188,183307.734,0.037,1.000,0.189,-2.045,-0.122,-0.214,80.000,55377.000,1.000
191684.813,190367.672,208500.031,201426.516,193274.031,184614.953,193358.609,183275.547,0.038,0.999,0.188,-2.014,-0.122,-0.031,80.000,55378.000,1.000
191676.766,190380.547,208517.734,201435.984,193278.141,184631.141,193378.453,183260.984,0.040,1.000,0.187,-1.892,-0.183,0.000,80.000,55379.000,1.000
191693.578,190416.391,208556.891,201468.000,193300.672,184675.219,193414.125,183274.297,0.038,1.000,0.185,-1.831,-0.122,-0.092,80.000,55380.000,1.000
191717.094,190435.266,208574.781,201485.078,193315.953,184694.266,193427.000,183295.484,0.038,1.002,0.187,-1.801,-0.183,-0.031,80.000,55381.000,1.000
191724.156,190420.594,208552.422,201469.781,193314.344,184685.859,193418.688,183308.281,0.037,1.002,0.188,-1.862,-0.183,-0.122,80.000,55382.000,1.000
191704.750,190392.703,208523.375,201450.031,193299.688,184654.297,193393.922,183293.969,0.038,1.000,0.190,-1.801,-0.214,-0.061,80.000,55383.000,1.000
191687.938,190401.641,208534.281,201451.719,193299.953,184673.156,193397.938,183274.922,0.037,1.001,0.188,-1.678,-0.305,-0.214,80.000,55384.000,1.000
191700.734,190438.750,208569.766,201476.484,193319.891,184719.031,193430.750,183282.797,0.036,1.002,0.187,-1.587,-0.336,-0.153,80.000,55385.000,1.000
191724.250,190454.844,208585.688,201489.547,193332.938,184714.281,193454.000,183310.156,0.037,1.003,0.190,-1.648,-0.427,-0.183,80.000,55386.000,1.000
191730.594,190432.766,208561.641,201478.094,193323.734,184670.750,193422.438,183325.344,0.038,1.005,0.191,-1.740,-0.336,-0.183,80.000,55387.000,1.000
191705.375,190396.547,208525.328,201449.938,193299.500,184636.063,193386.938,183302.188,0.038,1.004,0.189,-1.770,-0.427,-0.214,80.000,55388.000,1.000
191686.156,190397.984,208532.219,201448.766,193294.859,184659.297,193399.016,183280.828,0.039,1.001,0.190,-1.740,-0.458,-0.153,80.000,55389.000,1.000
191693.672,190426.234,208561.281,201465.766,193308.438,184698.375,193427.172,183289.766,0.040,1.001,0.185,-1.801,-0.397,-0.122,80.000,55390.000,1.000
191722.813,190455.563,208583.453,201482.750,193326.781,184718.313,193449.531,183316.328,0.041,0.997,0.186,-1.709,-0.458,-0.061,80.000,55391.000,1.000
191733.359,190430.250,208556.625,201472.469,193308.000,184651.703,193388.281,183312.125,0.041,0.994,0.183,-1.648,-0.305,-0.122,80.000,55392.000,1.000
191707.875,190396.906,208519.172,201445.016,193281.984,184610.313,193346.359,183283.781,0.040,0.987,0.181,-1.404,-0.244,-0.122,80.000,55393.000,1.000
191690.891,190386.719,208526.047,201442.609,193282.063,184641.250,193371.297,183264.734,0.037,0.982,0.178,-1.190,-0.214,-0.092,80.000,55394.000,1.000
191708.859,190431.688,208570.484,201469.969,193312.922,184708.922,193420.031,183281.984,0.035,0.980,0.176,-0.763,-0.244,-0.153,80.000,55395.000,1.000
191726.031,190445.188,208583.984,201486.063,193326.234,184709.109,193443.266,183307.656,0.032,0.978,0.180,-0.305,-0.336,-0.153,80.000,55396.000,1.000
191743.109,190433.656,208567.625,201481.234,193326.688,184674.953,193428.781,183325.266,0.029,0.982,0.180,0.305,-0.336,-0.153,80.000,55397.000,1.000
191708.953,190390.203,208520.953,201437.781,193292.359,184629.984,193375.406,183281.094,0.030,0.985,0.184,0.732,-0.397,-0.153,80.000,55398.000,1.000
191685.531,190390.016,208524.531,201434.563,193287.875,184653.047,193385.609,183262.234,0.029,0.993,0.188,0.946,-0.519,-0.031,80.000,55399.000,1.000
191702.875,190422.922,208561.906,201467.719,193310.953,184697.484,193422.797,183279.484,0.029,0.999,0.188,1.007,-0.793,0.000,80.000,55400.000,1.000
191726.484,190444.375,208580.313,201482.656,193327.406,184713.578,193447.109,183307.203,0.032,1.002,0.189,1.160,-0.946,0.153,80.000,55401.000,1.000
191738.813,190440.891,208565.125,201480.875,193331.156,184696.938,193433.438,183330.813,0.035,1.002,0.187,1.251,-1.038,0.183,80.000,55402.000,1.000
191710.297,190401.281,208523.719,201448.766,193302.281,184650.094,193388.734,183299.609,0.033,1.006,0.188,1.373,-1.129,0.183,80.000,55403.000,1.000
191678.203,190384.391,208517.375,201434.281,193283.672,184637.406,193383.375,183266.969,0.032,1.010,0.186,1.282,-1.160,0.397,80.000,55404.000,1.000
191691.875,190417.922,208555.109,201464.156,193304.688,184680.313,193417.438,183280.203,0.034,1.010,0.188,1.038,-1.373,0.549,80.000,55405.000,1.000
191712.438,190437.672,208571.375,201480.422,193320.609,184706.594,193431.922,183304.516,0.036,1.008,0.187,1.038,-1.282,0.580,80.000,55406.000,1.000
191720.125,190421.047,208550.813,201468.172,193317.203,184682.016,193414.578,183320.438,0.035,1.008,0.188,0.977,-1.282,0.610,80.000,55407.000,1.000
191705.469,190398.250,208528.109,201447.703,193303.078,184647.594,193390.344,183303.172,0.033,1.009,0.189,0.854,-1.404,0.671,80.000,55408.000,1.000
191683.734,190397.891,208533.109,201443.313,193292.438,184646.781,193381.766,183273.938,0.035,1.009,0.187,0.824,-1.495,0.793,80.000,55409.000,1.000
191690.266,190419.266,208559.125,201460.656,193301.375,184677.188,193403.313,183276.172,0.036,1.008,0.188,0.824,-1.648,0.885,80.000,55410.000,1.000
191719.234,190445.016,208584.172,201489.547,193327.219,184708.203,193435.844,183307.922,0.036,1.010,0.188,0.732,-1.770,0.885,80.000,55411.000,1.000
191733.094,190436.688,208569.234,201486.953,193333.563,184692.734,193427.625,183329.641,0.035,1.009,0.187,0.671,-1.740,0.854,80.000,55412.000,1.000
191700.906,190395.391,208526.500,201450.297,193305.578,184655.641,193387.750,183299.422,0.035,1.011,0.187,0.641,-1.801,0.977,80.000,55413.000,1.000
191681.063,190395.922,208530.703,201446.891,193298.875,184658.859,193394.359,183273.672,0.036,1.013,0.188,0.488,-1.831,1.038,80.000,55414.000,1.000
191700.453,190433.750,208570.672,201482.750,193325.250,184707.313,193440.328,183291.109,0.039,1.013,0.189,0.366,-1.892,1.038,80.000,55415.000,1.000
191722.453,190452.422,208586.313,201491.688,193340.281,184727.250,193457.391,183315.344,0.045,1.012,0.189,0.153,-1.953,1.068,80.000,55416.000,1.000
191729.516,190428.922,208559.125,201474.250,193330.438,184696.047,193425.563,183321.500,0.043,1.011,0.188,-0.061,-1.984,1.251,80.000,55417.000,1.000
191704.938,190387.703,208520.953,201441.891,193305.313,184654.656,193400.266,183298.266,0.042,1.010,0.190,-0.153,-2.014,1.282,80.000,55418.000,1.000
191686.781,190395.922,208532.672,201442.516,193304.688,184671.906,193415.281,183281.266,0.041,1.011,0.189,-0.183,-2.045,1.343,80.000,55419.000,1.000
