EEG 1,EEG 2,EEG 3,EEG 4,EEG 5,EEG 6,EEG 7,EEG 8,Accelerometer X,Accelerometer Y,Accelerometer Z,Gyroscope X,Gyroscope Y,Gyroscope Z,Battery Level,Counter,Validation Indicator
192747.688,190287.656,207030.000,199784.906,193450.156,184605.297,193394.000,182889.672,-0.010,1.001,0.067,-2.014,-0.183,-0.549,80.000,113361.000,1.000
192736.781,190296.766,207044.578,199795.641,193448.359,184617.813,193398.656,182871.156,-0.009,1.001,0.069,-2.075,-0.183,-0.549,80.000,113362.000,1.000
192749.656,190323.141,207074.344,199821.391,193465.266,184646.875,193424.578,182882.703,-0.009,1.000,0.068,-2.014,-0.122,-0.610,80.000,113363.000,1.000
192767.984,190334.672,207083.641,199831.672,193478.141,184655.734,193434.859,182909.078,-0.009,0.999,0.068,-2.106,-0.275,-0.641,80.000,113364.000,1.000
192770.578,190313.219,207057.891,199817.359,193470.719,184624.250,193414.031,182925.344,-0.007,1.002,0.068,-2.075,-0.244,-0.610,80.000,113365.000,1.000
192744.734,190286.938,207031.516,199792.500,193449.344,184608.609,193384.703,182895.922,-0.009,1.002,0.065,-2.045,-0.305,-0.610,80.000,113366.000,1.000
192732.938,190296.328,207044.313,199797.969,193448.016,184628.375,193396.328,182874.203,-0.010,1.001,0.067,-2.197,-0.488,-0.458,80.000,113367.000,1.000
192748.938,190321.266,207072.563,199818.609,193465.094,184654.563,193435.844,182889.219,-0.011,1.001,0.067,-2.136,-0.488,-0.519,80.000,113368.000,1.000
192777.813,190337.188,207085.438,199831.844,193479.219,184663.500,193446.766,182914.891,-0.010,0.999,0.068,-2.136,-0.488,-0.427,80.000,113369.000,1.000
192778.531,190309.734,207055.313,199813.516,193466.250,184626.484,193416.000,182921.766,-0.009,0.998,0.068,-2.136,-0.488,-0.427,80.000,113370.000,1.000
192744.109,190274.328,207022.578,199780.891,193437.547,184588.938,193380.859,182887.172,-0.009,0.998,0.065,-2.014,-0.458,-0.488,80.000,113371.000,1.000
192721.578,190277.375,207030.266,199778.297,193432.453,184608.250,193391.063,182860.875,-0.010,0.997,0.064,-2.136,-0.519,-0.427,80.000,113372.000,1.000
192745.453,190315.281,207070.859,199815.031,193461.328,184652.688,193428.250,182884.938,-0.007,0.998,0.065,-2.014,-0.580,-0.427,80.000,113373.000,1.000
192781.844,190344.422,207094.828,199840.156,193488.594,184672.719,193451.047,182920.781,-0.009,0.997,0.066,-1.892,-0.549,-0.366,80.000,113374.000,1.000
192787.203,190325.828,207072.375,199828.625,193488.594,184647.859,193441.391,182940.000,-0.008,0.999,0.066,-1.923,-0.580,-0.275,80.000,113375.000,1.000
192740.359,190278.359,207027.328,199784.109,193447.391,184591.000,193386.047,182891.281,-0.008,0.999,0.068,-1.923,-0.580,-0.275,80.000,113376.000,1.000
192729.625,190289.172,207045.203,199793.219,193447.734,184601.094,193389.453,182873.750,-0.006,0.998,0.064,-1.831,-0.488,-0.275,80.000,113377.000,1.000
192762.266,190334.672,207095.094,199837.563,193487.703,184660.828,193440.141,182907.188,-0.009,0.997,0.069,-1.892,-0.519,-0.305,80.000,113378.000,1.000
192778.984,190344.422,207099.391,199841.328,193497.188,184672.000,193451.406,182923.203,-0.008,0.998,0.071,-1.862,-0.458,-0.336,80.000,113379.000,1.000
192768.063,190305.359,207053.250,199803.063,193469.563,184615.406,193405.813,182913.719,-0.008,0.999,0.069,-1.801,-0.366,-0.244,80.000,113380.000,1.000
192740.531,190274.234,207023.125,199775.781,193445.328,184585.281,193380.688,182883.953,-0.009,0.999,0.069,-1.801,-0.519,-0.244,80.000,113381.000,1.000
192738.656,190295.078,207051.016,199798.859,193460.531,184623.984,193408.578,182881.719,-0.007,0.998,0.071,-1.953,-0.458,-0.183,80.000,113382.000,1.000
192752.516,190324.219,207082.938,199825.594,193481.359,184659.656,193440.594,182899.234,-0.007,0.998,0.070,-1.984,-0.580,-0.183,80.000,113383.000,1.000
192772.625,190336.281,207089.906,199832.922,193495.313,184672.000,193456.953,182919.531,-0.006,0.999,0.068,-1.984,-0.488,-0.153,80.000,113384.000,1.000
192772.625,190312.156,207059.328,199811.469,193483.063,184634.891,193423.250,182919.625,-0.006,0.999,0.069,-1.984,-0.397,-0.092,80.000,113385.000,1.000
192740.078,190280.313,207028.391,199784.281,193458.563,184601.547,193397.406,182892.625,-0.004,0.998,0.070,-2.045,-0.427,-0.092,80.000,113386.000,1.000
192732.219,190295.078,207046.719,199793.672,193461.156,184628.281,193408.844,182874.031,-0.005,1.000,0.066,-2.045,-0.397,-0.092,80.000,113387.000,1.000
192763.594,190338.344,207093.750,199835.609,193492.984,184680.219,193452.656,182902.453,-0.005,1.000,0.069,-2.045,-0.305,-0.214,80.000,113388.000,1.000
192793.109,190356.500,207109.750,199854.734,193507.828,184682.109,193463.922,182934.641,-0.008,1.000,0.069,-2.045,-0.336,-0.244,80.000,113389.000,1.000
192787.203,190323.859,207072.109,199826.656,193485.656,184630.969,193428.078,182935.531,-0.008,0.999,0.067,-1.953,-0.275,-0.183,80.000,113390.000,1.000
192741.875,190276.656,207024.375,199781.250,193441.656,184590.109,193378.188,182883.234,-0.007,1.001,0.066,-2.014,-0.275,-0.122,80.000,113391.000,1.000
192726.406,190283.359,207034.563,199782.406,193436.125,184609.141,193385.063,182855.781,-0.006,1.000,0.069,-1.953,-0.214,-0.122,80.000,113392.000,1.000
192739.453,190305.172,207061.109,199804.125,193447.563,184625.688,193413.594,182866.875,-0.004,1.001,0.067,-2.045,-0.092,-0.153,80.000,113393.000,1.000
192769.406,190325.828,207079.797,199827.469,193470.094,184647.234,193438.891,182903.703,-0.003,1.000,0.067,-2.136,-0.031,-0.214,80.000,113394.000,1.000
192767.172,190297.750,207048.516,199806.984,193461.328,184614.953,193413.594,182912.203,-0.004,0.998,0.066,-2.045,-0.092,-0.183,80.000,113395.000,1.000
192730.516,190255.641,207009.266,199769.531,193427.625,184570.969,193368.891,182874.734,-0.003,0.997,0.067,-2.045,0.092,-0.183,80.000,113396.000,1.000
192718.625,190263.516,207022.219,199776.422,193425.656,184589.125,193375.328,182855.703,-0.004,0.999,0.067,-1.892,0.061,-0.183,80.000,113397.000,1.000
192747.953,190307.406,207067.547,199819.063,193460.438,184643.125,193422.531,182887.078,-0.006,0.999,0.071,-1.770,0.122,-0.244,80.000,113398.000,1.000
192770.297,190322.781,207077.391,199829.703,193474.563,184654.391,193439.688,182914.344,-0.008,0.999,0.068,-1.831,0.153,-0.244,80.000,113399.000,1.000
192770.031,190296.234,207046.188,199808.422,193458.016,184606.281,193403.313,182918.016,-0.007,0.998,0.065,-1.831,0.153,-0.275,80.000,113400.000,1.000
192746.438,190269.594,207021.063,199786.250,193439.156,184581.344,193379.531,182895.297,-0.008,0.998,0.066,-1.862,0.214,-0.275,80.000,113401.000,1.000
192742.047,190289.344,207044.313,199799.219,193449.703,184616.484,193402.953,182887.438,-0.008,0.997,0.069,-1.740,0.214,-0.275,80.000,113402.000,1.000
192751.078,190316.000,207070.234,199815.313,193465.797,184647.859,193436.563,182892.359,-0.009,0.998,0.067,-1.709,0.183,-0.336,80.000,113403.000,1.000
192779.063,190336.109,207088.391,199834.969,193489.047,184666.547,193459.813,182922.938,-0.009,0.999,0.065,-1.648,0.122,-0.366,80.000,113404.000,1.000
192779.781,190308.297,207060.672,199818.344,193476.703,184622.828,193422.625,182927.672,-0.008,0.998,0.068,-1.587,0.275,-0.458,80.000,113405.000,1.000
192742.313,190271.109,207025.719,199781.594,193443.547,184583.031,193381.141,182888.063,-0.005,0.998,0.070,-1.709,0.183,-0.488,80.000,113406.000,1.000
192740.531,190290.781,207049.313,199791.797,193452.656,184617.109,193404.469,182875.906,-0.005,0.998,0.072,-1.740,0.275,-0.519,80.000,113407.000,1.000
192764.938,190325.563,207085.703,199822.813,193476.703,184660.641,193440.594,182892.078,-0.004,0.998,0.070,-1.709,0.244,-0.488,80.000,113408.000,1.000
192788.453,190341.750,207096.172,199834.266,193490.750,184672.359,193451.234,182915.859,-0.005,0.994,0.067,-1.617,0.214,-0.397,80.000,113409.000,1.000
192790.516,190319.922,207068.188,199820.672,193483.063,184638.375,193433.172,182931.516,-0.004,0.994,0.069,-1.617,0.153,-0.305,80.000,113410.000,1.000
192760.828,190289.172,207037.781,199791.344,193454.891,184597.703,193392.484,182895.578,-0.006,0.995,0.065,-1.556,0.183,-0.305,80.000,113411.000,1.000
192746.516,190299.281,207052.438,199795.188,193455.969,184619.344,193403.391,182875.547,-0.010,0.994,0.063,-1.404,0.214,-0.366,80.000,113412.000,1.000
192751.625,190319.563,207075.422,199815.750,193468.578,184649.469,193427.797,182885.375,-0.009,0.995,0.061,-1.282,0.122,-0.336,80.000,113413.000,1.000
192775.578,190335.578,207088.031,199834.266,193485.031,184657.969,193439.422,182915.063,-0.009,0.995,0.066,-1.221,0.153,-0.397,80.000,113414.000,1.000
192782.016,190317.516,207066.391,199821.391,193482.781,184631.313,193424.047,182932.406,-0.010,0.997,0.066,-1.160,0.031,-0.427,80.000,113415.000,1.000
192753.672,190285.422,207034.922,199790.453,193456.766,184600.203,193395.266,182901.109,-0.010,0.998,0.064,-1.099,0.000,-0.519,80.000,113416.000,1.000
192732.672,190283.813,207038.141,199787.766,193446.125,184612.000,193398.297,182875.094,-0.010,0.999,0.063,-1.038,-0.061,-0.488,80.000,113417.000,1.000
192759.313,190323.500,207079.719,199823.172,193472.594,184656.984,193437.109,182898.609,-0.010,1.000,0.065,-1.068,-0.122,-0.427,80.000,113418.000,1.000
192788.813,190339.500,207097.234,199839.719,193489.859,184668.688,193452.656,182928.109,-0.009,1.004,0.068,-1.007,-0.183,-0.427,80.000,113419.000,1.000
192781.391,190305.984,207061.031,199814.141,193471.875,184620.859,193421.719,182929.906,-0.006,1.002,0.064,-1.190,-0.153,-0.488,80.000,113420.000,1.000
192754.656,190277.906,207034.297,199789.016,193450.516,184591.172,193396.156,182902.453,-0.007,1.003,0.064,-1.129,-0.214,-0.458,80.000,113421.000,1.000
192743.750,190285.688,207049.500,199796.438,193451.313,184610.938,193407.688,182885.016,-0.007,1.002,0.066,-1.160,-0.275,-0.458,80.000,113422.000,1.000
192753.047,190309.281,207075.594,199817.281,193466.344,184641.156,193433.438,182893.688,-0.009,1.003,0.067,-1.221,-0.244,-0.580,80.000,113423.000,1.000
192786.844,190339.422,207100.453,199844.000,193495.844,184665.734,193460.969,182935.172,-0.008,1.004,0.067,-1.282,-0.336,-0.641,80.000,113424.000,1.000
192785.234,190317.516,207070.859,199822.641,193485.109,184630.875,193432.813,182937.688,-0.010,1.004,0.067,-1.404,-0.366,-0.763,80.000,113425.000,1.000
192756.625,190290.953,207041.719,199794.750,193464.547,184609.422,193408.141,182909.250,-0.012,1.003,0.067,-1.617,-0.397,-0.732,80.000,113426.000,1.000
192735.438,190290.953,207047.609,199788.578,193458.203,184624.531,193416.719,182880.906,-0.012,1.004,0.067,-1.617,-0.397,-0.824,80.000,113427.000,1.000
192753.672,190320.375,207080.609,199816.828,193477.688,184662.172,193443.719,182891.016,-0.010,1.002,0.068,-1.831,-0.488,-0.885,80.000,113428.000,1.000
192774.953,190331.906,207089.188,199829.516,193490.484,184670.125,193457.672,182916.047,-0.010,1.002,0.067,-1.862,-0.488,-0.916,80.000,113429.000,1.000
192774.594,190308.391,207058.531,199808.781,193479.750,184643.203,193439.969,182926.688,-0.011,1.001,0.068,-1.892,-0.519,-0.946,80.000,113430.000,1.000
192752.328,190281.031,207032.422,199782.672,193453.375,184600.391,193397.938,182893.250,-0.008,1.001,0.071,-2.045,-0.610,-0.916,80.000,113431.000,1.000
192738.922,190287.656,207044.938,199786.875,193445.500,184605.219,193393.031,182865.531,-0.008,0.999,0.068,-2.136,-0.641,-0.854,80.000,113432.000,1.000
192765.125,190330.031,207088.125,199828.891,193476.000,184654.391,193434.953,182891.016,-0.009,0.999,0.066,-2.258,-0.763,-0.946,80.000,113433.000,1.000
192794.172,190353.281,207106.172,199847.672,193497.984,184666.016,193454.000,182927.844,-0.006,0.999,0.068,-2.258,-0.732,-0.793,80.000,113434.000,1.000
192777.719,190315.281,207062.641,199815.938,193476.703,184621.938,193421.906,182927.766,-0.006,0.999,0.066,-2.258,-0.763,-0.763,80.000,113435.000,1.000
192747.063,190284.609,207033.313,199792.953,193454.453,184594.031,193391.141,182900.844,-0.007,0.997,0.066,-2.258,-0.824,-0.641,80.000,113436.000,1.000
192731.594,190289.969,207046.281,199800.375,193454.453,184617.188,193403.844,182883.234,-0.009,0.996,0.068,-2.289,-0.763,-0.580,80.000,113437.000,1.000
192743.844,190315.453,207073.188,199820.938,193470.453,184653.766,193439.875,182897.188,-0.007,0.995,0.068,-2.289,-0.763,-0.580,80.000,113438.000,1.000
192765.750,190329.859,207081.688,199827.906,193482.156,184662.172,193450.688,182921.672,-0.007,0.996,0.068,-2.289,-0.732,-0.397,80.000,113439.000,1.000
192769.328,190308.844,207053.781,199810.484,193472.688,184626.844,193422.531,182929.375,-0.007,0.995,0.065,-2.136,-0.702,-0.427,80.000,113440.000,1.000
192743.031,190280.141,207026.156,199782.672,193449.531,184595.828,193392.938,182899.953,-0.010,0.995,0.067,-2.197,-0.671,-0.244,80.000,113441.000,1.000
192735.531,190292.656,207045.922,199793.484,193453.734,184618.359,193406.078,182880.906,-0.010,0.996,0.068,-2.258,-0.763,-0.305,80.000,113442.000,1.000
192760.203,190330.297,207086.328,199826.484,193480.375,184663.688,193444.875,182894.766,-0.010,0.998,0.068,-2.106,-0.763,-0.397,80.000,113443.000,1.000
192790.594,190350.328,207104.125,199846.328,193500.672,184679.594,193462.672,182927.047,-0.010,0.998,0.067,-2.167,-0.702,-0.244,80.000,113444.000,1.000
192779.875,190313.406,207061.297,199811.547,193474.469,184626.219,193415.828,182918.188,-0.011,0.997,0.066,-2.136,-0.732,-0.336,80.000,113445.000,1.000
192756.359,190282.203,207034.297,199786.516,193451.938,184588.313,193390.797,182891.641,-0.010,0.996,0.067,-2.106,-0.702,-0.397,80.000,113446.000,1.000
192746.969,190293.109,207052.531,199797.875,193455.250,184609.500,193404.734,182876.438,-0.010,0.999,0.069,-2.014,-0.671,-0.397,80.000,113447.000,1.000
192759.938,190321.891,207081.766,199817.453,193475.375,184650.547,193441.031,182889.219,-0.009,0.998,0.068,-2.136,-0.641,-0.397,80.000,113448.000,1.000
192785.953,190343.078,207096.969,199832.563,193492.438,184657.063,193453.734,182919.078,-0.008,0.999,0.065,-2.045,-0.732,-0.458,80.000,113449.000,1.000
192774.063,190306.250,207054.594,199801.531,193467.328,184600.656,193406.172,182914.703,-0.008,0.997,0.067,-2.014,-0.641,-0.519,80.000,113450.000,1.000
192739.109,190269.766,207018.109,199766.313,193435.766,184562.031,193367.625,182875.984,-0.008,0.998,0.071,-1.831,-0.641,-0.458,80.000,113451.000,1.000
192742.859,190296.859,207052.531,199794.656,193455.078,184611.469,193400.359,182872.141,-0.008,0.998,0.067,-1.831,-0.610,-0.519,80.000,113452.000,1.000
192757.875,190325.922,207087.672,199826.656,193480.281,184662.875,193445.859,182893.969,-0.005,0.997,0.072,-1.801,-0.610,-0.427,80.000,113453.000,1.000
192781.031,190339.063,207099.734,199839.172,193494.047,184666.188,193453.281,182920.516,-0.005,0.998,0.067,-1.801,-0.519,-0.397,80.000,113454.000,1.000
192761.906,190296.406,207050.297,199801.359,193461.953,184601.906,193392.125,182908.719,-0.006,0.998,0.066,-1.831,-0.458,-0.305,80.000,113455.000,1.000
192732.750,190269.063,207022.219,199778.563,193442.641,184581.969,193376.938,182885.734,-0.005,0.996,0.067,-1.831,-0.397,-0.305,80.000,113456.000,1.000
192724.703,190283.984,207040.547,199790.719,193446.766,184614.953,193389.453,182870.891,-0.003,0.995,0.065,-1.709,-0.336,-0.244,80.000,113457.000,1.000
192744.375,190318.234,207076.938,199823.078,193471.172,184658.594,193427.453,182890.391,-0.004,0.997,0.066,-1.648,-0.275,-0.244,80.000,113458.000,1.000
192765.203,190329.672,207085.969,199833.641,193484.391,184660.203,193446.406,182919.891,-0.003,0.998,0.063,-1.617,-0.153,-0.336,80.000,113459.000,1.000
192769.594,190310.719,207058.875,199816.375,193475.906,184625.859,193417.609,182928.203,-0.003,1.001,0.068,-1.648,-0.031,-0.244,80.000,113460.000,1.000
192747.500,190286.578,207036.266,199795.016,193460.531,184608.438,193400.000,182904.609,-0.002,0.999,0.066,-1.587,-0.031,-0.153,80.000,113461.000,1.000
192730.516,190291.672,207047.531,199795.547,193454.625,184618.891,193405.188,182878.313,-0.004,0.999,0.064,-1.617,0.061,-0.183,80.000,113462.000,1.000
192732.750,190309.563,207068.453,199806.813,193461.234,184643.203,193426.734,182875.359,-0.005,1.000,0.065,-1.617,0.153,-0.275,80.000,113463.000,1.000
192760.563,190330.656,207086.328,199825.313,193481.266,184662.078,193445.500,182902.906,-0.006,1.000,0.067,-1.556,0.214,-0.214,80.000,113464.000,1.000
192756.891,190299.984,207051.906,199801.000,193463.563,184610.578,193405.547,182905.313,-0.007,1.000,0.069,-1.556,0.275,-0.275,80.000,113465.000,1.000
192728.734,190263.250,207021.063,199771.859,193435.406,184569.094,193369.234,182875.359,-0.007,1.000,0.066,-1.617,0.275,-0.153,80.000,113466.000,1.000
192731.234,190283.000,207048.156,199790.094,193445.328,184602.172,193392.750,182863.750,-0.007,1.002,0.065,-1.648,0.366,-0.305,80.000,113467.000,1.000
192757.078,190320.109,207086.688,199825.594,193471.250,184645.438,193429.234,182884.391,-0.009,1.002,0.063,-1.587,0.336,-0.305,80.000,113468.000,1.000
192784.344,190339.500,207099.734,199838.109,193488.688,184659.219,193440.406,182910.141,-0.009,1.000,0.065,-1.678,0.305,-0.244,80.000,113469.000,1.000
192785.234,190312.500,207067.375,199815.578,193473.047,184610.578,193401.422,182913.984,-0.008,1.000,0.066,-1.617,0.275,-0.275,80.000,113470.000,1.000
192760.656,190288.188,207042.344,199791.078,193455.078,184592.422,193388.469,182893.969,-0.010,1.001,0.064,-1.678,0.183,-0.214,80.000,113471.000,1.000
192742.500,190289.531,207051.453,199789.109,193446.766,184595.828,193385.328,182870.531,-0.010,1.002,0.065,-1.770,0.214,-0.183,80.000,113472.000,1.000
192758.953,190320.469,207084.094,199812.891,193465.359,184634.188,193412.609,182879.750,-0.008,1.000,0.067,-1.648,0.244,-0.336,80.000,113473.000,1.000
192783.094,190339.688,207099.031,199828.453,193481.094,184645.891,193431.469,182907.734,-0.010,1.002,0.065,-1.831,0.153,-0.305,80.000,113474.000,1.000
192781.484,190312.500,207070.500,199813.078,193471.078,184613.531,193410.094,182918.734,-0.009,1.003,0.066,-1.678,0.183,-0.305,80.000,113475.000,1.000
192743.391,190272.906,207035.016,199780.531,193443.453,184581.703,193378.188,182885.734,-0.009,1.000,0.066,-1.648,0.122,-0.275,80.000,113476.000,1.000
192734.453,190288.016,207055.219,199796.531,193451.047,184611.469,193397.313,182873.313,-0.010,0.996,0.067,-1.709,0.122,-0.366,80.000,113477.000,1.000
192745.531,190315.641,207084.625,199823.984,193470.188,184650.000,193424.859,182884.656,-0.010,0.995,0.066,-1.740,0.031,-0.336,80.000,113478.000,1.000
192767.094,190332.531,207095.813,199837.484,193486.000,184660.734,193436.656,182909.875,-0.009,0.994,0.063,-1.526,0.031,-0.366,80.000,113479.000,1.000
192770.391,190312.859,207068.453,199817.813,193477.422,184621.750,193407.688,182917.391,-0.009,0.996,0.065,-1.343,-0.061,-0.336,80.000,113480.000,1.000
192741.156,190280.859,207038.234,199789.734,193454.266,184589.563,193379.797,182887.609,-0.009,0.995,0.060,-1.373,-0.122,-0.183,80.000,113481.000,1.000
192733.828,190290.328,207056.641,199801.094,193459.281,184610.844,193399.906,182874.469,-0.008,0.996,0.065,-1.343,-0.122,-0.122,80.000,113482.000,1.000
192753.234,190323.953,207093.031,199828.266,193484.844,184660.016,193440.766,182892.797,-0.009,0.996,0.062,-1.160,-0.183,-0.153,80.000,113483.000,1.000
192777.906,190340.578,207105.469,199842.313,193500.672,184670.203,193454.172,182921.406,-0.008,0.995,0.065,-1.068,-0.092,-0.092,80.000,113484.000,1.000
192781.844,190318.047,207077.656,199825.406,193490.656,184631.047,193426.547,182935.094,-0.010,0.996,0.066,-1.038,-0.153,-0.244,80.000,113485.000,1.000
192753.672,190283.891,207043.234,199789.375,193460.969,184589.203,193397.500,182900.578,-0.012,0.997,0.062,-1.007,-0.122,-0.305,80.000,113486.000,1.000
192741.250,190290.156,207053.250,199791.531,193453.375,184597.172,193398.391,182873.484,-0.011,0.997,0.063,-0.946,-0.214,-0.336,80.000,113487.000,1.000
192753.766,190316.266,207080.969,199812.625,193465.172,184630.688,193417.516,182878.234,-0.012,0.996,0.066,-0.946,-0.336,-0.275,80.000,113488.000,1.000
192788.094,190348.094,207104.563,199835.688,193489.766,184660.375,193441.297,182910.500,-0.013,0.995,0.060,-0.977,-0.397,-0.397,80.000,113489.000,1.000
192791.672,190327.609,207077.656,199823.625,193481.813,184618.000,193415.109,182926.500,-0.012,0.997,0.060,-0.946,-0.336,-0.366,80.000,113490.000,1.000
192755.188,190282.203,207037.328,199785.172,193447.922,184575.266,193377.563,182891.734,-0.011,1.000,0.063,-0.916,-0.427,-0.519,80.000,113491.000,1.000
192746.250,190292.563,207054.594,199788.844,193448.641,184607.359,193392.125,182864.375,-0.014,1.000,0.065,-0.946,-0.580,-0.641,80.000,113492.000,1.000
192780.859,190338.344,207103.672,199828.359,193481.531,184659.656,193436.922,182888.156,-0.012,1.001,0.063,-1.099,-0.641,-0.641,80.000,113493.000,1.000
192806.422,190355.156,207117.000,199840.344,193490.750,184661.000,193445.328,182909.609,-0.011,1.000,0.062,-1.160,-0.702,-0.549,80.000,113494.000,1.000
192786.750,190311.797,207068.188,199800.641,193458.734,184601.094,193397.938,182903.000,-0.009,1.000,0.063,-1.221,-0.549,-0.519,80.000,113495.000,1.000
192762.703,190287.391,207043.594,199784.188,193444.609,184584.469,193377.563,182884.750,-0.009,1.004,0.060,-1.221,-0.641,-0.580,80.000,113496.000,1.000
192740.797,190288.547,207049.766,199788.031,193438.891,184597.703,193379.797,182855.969,-0.008,1.003,0.063,-1.343,-0.671,-0.549,80.000,113497.000,1.000
192764.406,190332.000,207094.016,199827.109,193474.563,184653.484,193433.531,182886.547,-0.008,1.003,0.066,-1.495,-0.671,-0.549,80.000,113498.000,1.000
192784.609,190350.063,207105.375,199841.406,193491.281,184668.688,193448.719,182914.797,-0.010,1.004,0.063,-1.526,-0.763,-0.488,80.000,113499.000,1.000
192770.031,190311.172,207059.953,199810.922,193467.500,184612.813,193401.156,182911.047,-0.009,1.003,0.064,-1.648,-0.671,-0.427,80.000,113500.000,1.000
192738.563,190278.891,207026.688,199782.672,193445.328,184581.609,193375.953,182882.516,-0.009,1.001,0.063,-1.740,-0.641,-0.305,80.000,113501.000,1.000
192738.031,190295.344,207053.250,199802.703,193462.141,184622.828,193408.672,182879.844,-0.009,1.000,0.063,-1.831,-0.610,-0.366,80.000,113502.000,1.000
192761.813,190327.172,207092.594,199835.250,193488.328,184665.031,193442.641,182899.688,-0.007,0.999,0.062,-1.709,-0.671,-0.305,80.000,113503.000,1.000
192776.031,190335.656,207096.875,199838.281,193494.688,184664.484,193449.969,182915.234,-0.007,0.998,0.064,-1.740,-0.671,-0.305,80.000,113504.000,1.000
192772.000,190304.641,207062.016,199815.219,193477.328,184617.016,193411.891,182918.547,-0.007,0.998,0.064,-1.801,-0.610,-0.244,80.000,113505.000,1.000
192743.656,190270.578,207031.078,199784.281,193449.891,184580.797,193381.672,182887.531,-0.008,1.000,0.065,-1.862,-0.610,-0.183,80.000,113506.000,1.000
192728.109,190279.063,207042.969,199783.563,193444.969,184594.219,193389.000,182860.969,-0.009,1.000,0.062,-1.984,-0.519,-0.214,80.000,113507.000,1.000
192750.188,190317.156,207082.031,199817.359,193470.984,184642.406,193423.422,182880.016,-0.009,0.999,0.066,-1.862,-0.610,-0.275,80.000,113508.000,1.000
192781.297,190334.500,207098.219,199841.688,193490.031,184647.500,193439.969,182915.859,-0.008,1.000,0.068,-1.923,-0.610,-0.183,80.000,113509.000,1.000
192778.531,190306.969,207063.797,199818.172,193472.953,184605.922,193409.922,182921.500,-0.006,1.000,0.066,-2.014,-0.488,-0.092,80.000,113510.000,1.000
192746.516,190277.188,207029.828,199782.047,193444.078,184578.563,193376.578,182887.438,-0.007,0.998,0.066,-1.984,-0.427,-0.061,80.000,113511.000,1.000
192731.594,190284.250,207041.359,199782.766,193440.328,184602.078,193392.484,182865.172,-0.007,1.000,0.065,-2.014,-0.427,-0.122,80.000,113512.000,1.000
192752.422,190316.000,207078.906,199816.922,193461.516,184635.344,193422.969,182885.375,-0.007,0.999,0.065,-2.014,-0.366,-0.092,80.000,113513.000,1.000
192783.000,190337.000,207097.859,199835.953,193480.906,184651.609,193436.922,182915.156,-0.008,0.997,0.065,-1.953,-0.305,-0.122,80.000,113514.000,1.000
192775.578,190302.219,207059.859,199806.188,193461.156,184606.906,193400.984,182915.422,-0.008,0.999,0.068,-1.984,-0.275,-0.275,80.000,113515.000,1.000
192746.344,190273.438,207029.828,199777.844,193440.672,184579.281,193376.313,182889.219,-0.008,0.998,0.065,-2.014,-0.275,-0.214,80.000,113516.000,1.000
192744.906,190296.328,207055.219,199797.156,193456.141,184615.766,193403.578,182882.969,-0.009,0.997,0.064,-1.892,-0.244,-0.244,80.000,113517.000,1.000
192752.609,190318.047,207078.906,199818.078,193471.250,184644.906,193432.547,182893.250,-0.008,0.999,0.066,-1.953,-0.275,-0.305,80.000,113518.000,1.000
192772.094,190330.750,207086.234,199827.641,193481.719,184649.469,193442.828,182912.016,-0.007,1.000,0.063,-2.014,-0.244,-0.366,80.000,113519.000,1.000
192776.563,190311.875,207061.922,199817.359,193477.422,184620.406,193422.969,182927.672,-0.008,0.997,0.062,-2.075,-0.275,-0.549,80.000,113520.000,1.000
192755.469,190281.844,207037.781,199801.891,193455.516,184581.156,193383.188,182901.734,-0.007,0.999,0.061,-2.075,-0.122,-0.427,80.000,113521.000,1.000
192745.266,190288.813,207053.156,199811.734,193454.719,184604.938,193396.063,182882.422,-0.007,0.998,0.063,-2.045,-0.153,-0.519,80.000,113522.000,1.000
192756.625,190313.766,207079.000,199828.266,193470.266,184641.875,193428.781,182892.531,-0.007,1.000,0.066,-2.045,0.031,-0.427,80.000,113523.000,1.000
192779.156,190330.563,207090.172,199837.484,193483.766,184652.516,193444.703,182920.688,-0.007,0.999,0.066,-2.075,-0.061,-0.610,80.000,113524.000,1.000
192776.297,190301.234,207057.094,199814.688,193467.859,184600.469,193410.375,182928.297,-0.007,0.998,0.065,-2.075,0.031,-0.580,80.000,113525.000,1.000
192757.703,190278.359,207035.375,199797.250,193453.734,184583.484,193397.938,182909.344,-0.007,0.999,0.067,-1.984,-0.031,-0.610,80.000,113526.000,1.000
192742.500,190281.922,207045.375,199798.766,193447.469,184597.172,193389.094,182875.984,-0.009,0.998,0.066,-2.045,-0.061,-0.610,80.000,113527.000,1.000
192761.719,190320.906,207082.750,199827.109,193473.938,184648.750,193423.688,182893.063,-0.007,0.999,0.065,-2.014,-0.031,-0.610,80.000,113528.000,1.000
192795.344,190354.531,207108.234,199845.969,193502.188,184675.125,193455.969,182929.281,-0.007,0.999,0.067,-2.045,0.031,-0.702,80.000,113529.000,1.000
192790.328,190325.734,207073.906,199818.531,193483.063,184626.844,193418.859,182927.406,-0.007,0.999,0.066,-1.984,0.061,-0.671,80.000,113530.000,1.000
192755.016,190284.969,207037.250,199780.531,193449.531,184581.250,193384.438,182887.703,-0.007,1.000,0.066,-1.953,0.061,-0.732,80.000,113531.000,1.000
192743.391,190294.625,207053.875,199786.609,193450.156,184610.313,193404.641,182868.844,-0.010,0.999,0.066,-2.045,0.122,-0.671,80.000,113532.000,1.000
192755.469,190319.391,207082.938,199811.375,193463.750,184642.313,193426.281,182878.672,-0.009,0.998,0.065,-2.014,0.092,-0.671,80.000,113533.000,1.000
192784.250,190338.078,207102.156,199832.734,193482.875,184657.422,193443.813,182909.609,-0.010,1.000,0.065,-1.984,0.031,-0.732,80.000,113534.000,1.000
192776.297,190305.984,207063.797,199806.188,193464.109,184615.844,193412.688,182912.469,-0.011,1.000,0.067,-1.923,-0.031,-0.763,80.000,113535.000,1.000
192746.172,190272.188,207028.750,199778.297,193437.734,184580.984,193381.578,182882.781,-0.012,0.999,0.064,-1.984,-0.153,-0.641,80.000,113536.000,1.000
192733.641,190279.344,207041.000,199785.172,193436.125,184592.875,193386.406,182863.031,-0.013,0.997,0.063,-1.892,-0.183,-0.519,80.000,113537.000,1.000
192755.469,190318.500,207081.766,199822.641,193468.656,184640.609,193430.938,182887.609,-0.010,0.997,0.065,-1.831,-0.153,-0.671,80.000,113538.000,1.000
192782.109,190340.844,207099.109,199844.359,193493.078,184658.953,193452.656,182918.906,-0.010,1.000,0.067,-1.923,-0.275,-0.641,80.000,113539.000,1.000
192784.156,190319.391,207072.734,199828.266,193487.531,184629.266,193429.859,182928.469,-0.010,1.000,0.068,-1.862,-0.244,-0.641,80.000,113540.000,1.000
192751.438,190284.438,207039.844,199797.156,193464.453,184599.578,193402.141,182897.891,-0.010,0.999,0.065,-1.831,-0.397,-0.641,80.000,113541.000,1.000
192739.016,190292.844,207054.328,199801.625,193465.359,184617.906,193409.563,182878.500,-0.012,0.999,0.065,-1.862,-0.397,-0.641,80.000,113542.000,1.000
192754.125,190319.656,207083.922,199828.266,193482.969,184651.875,193434.328,182891.734,-0.011,0.999,0.065,-1.984,-0.519,-0.671,80.000,113543.000,1.000
192770.938,190329.047,207088.203,199836.406,193493.344,184660.828,193442.828,182913.625,-0.013,0.999,0.067,-1.953,-0.549,-0.549,80.000,113544.000,1.000
192769.953,190298.828,207053.781,199812.891,193477.250,184617.906,193410.641,182921.234,-0.013,0.999,0.067,-1.923,-0.580,-0.580,80.000,113545.000,1.000
192748.219,190272.719,207026.422,199784.906,193456.406,184592.063,193390.078,182899.328,-0.011,1.000,0.068,-1.862,-0.610,-0.610,80.000,113546.000,1.000
192740.359,190285.781,207041.891,199795.094,193458.297,184619.609,193409.203,182882.781,-0.011,0.997,0.068,-1.678,-0.641,-0.427,80.000,113547.000,1.000
192747.422,190303.656,207061.563,199811.734,193464.188,184644.641,193425.750,182884.484,-0.013,0.999,0.068,-1.709,-0.702,-0.427,80.000,113548.000,1.000
192780.047,190325.031,207081.234,199829.797,193480.641,184656.000,193440.672,182911.750,-0.012,0.998,0.065,-1.740,-0.793,-0.397,80.000,113549.000,1.000
192793.734,190311.609,207063.531,199817.906,193475.375,184619.250,193415.734,182924.719,-0.011,0.999,0.066,-1.801,-0.854,-0.366,80.000,113550.000,1.000
192767.172,190278.703,207030.188,199784.469,193444.344,184575.000,193381.484,182889.219,-0.010,0.999,0.068,-1.740,-0.885,-0.275,80.000,113551.000,1.000
192761.625,190293.375,207048.594,199793.219,193448.813,184608.969,193402.141,182875.094,-0.009,1.000,0.070,-1.770,-0.824,-0.153,80.000,113552.000,1.000
192782.203,190326.984,207083.016,199821.125,193468.484,184647.500,193424.141,182884.656,-0.009,0.998,0.065,-1.770,-0.793,-0.122,80.000,113553.000,1.000
192815.016,190347.734,207102.422,199841.766,193488.594,184665.297,193448.188,182917.828,-0.010,1.001,0.067,-1.801,-0.854,-0.214,80.000,113554.000,1.000
192817.875,190320.906,207073.000,199819.328,193478.047,184626.844,193422.891,182925.875,-0.010,1.000,0.067,-1.862,-0.824,-0.183,80.000,113555.000,1.000
192790.594,190288.813,207042.969,199790.359,193457.844,184594.484,193396.250,182900.125,-0.008,1.000,0.070,-1.862,-0.885,-0.122,80.000,113556.000,1.000
192774.500,190293.641,207054.766,199795.094,193459.453,184617.813,193411.266,182877.781,-0.009,1.000,0.070,-1.892,-0.824,-0.031,80.000,113557.000,1.000
192787.031,190320.469,207084.266,199818.438,193479.219,184651.703,193435.500,182884.125,-0.010,1.000,0.067,-1.984,-0.824,-0.031,80.000,113558.000,1.000
192808.922,190339.234,207097.688,199836.500,193497.094,184659.922,193447.031,182912.922,-0.009,1.000,0.070,-2.045,-0.763,0.000,80.000,113559.000,1.000
192809.547,190315.719,207069.703,199822.734,193489.313,184622.563,193424.500,182927.484,-0.008,1.001,0.068,-2.075,-0.732,0.031,80.000,113560.000,1.000
192787.563,190291.672,207045.656,199803.422,193473.219,184596.453,193407.516,182909.344,-0.008,1.001,0.069,-1.953,-0.702,0.031,80.000,113561.000,1.000
192783.625,190305.984,207063.984,199813.781,193477.328,184624.172,193421.188,182892.266,-0.007,1.000,0.067,-2.045,-0.519,0.031,80.000,113562.000,1.000
192799.891,190333.250,207093.297,199836.141,193492.438,184655.453,193444.703,182901.109,-0.004,0.998,0.067,-2.106,-0.519,0.092,80.000,113563.000,1.000
192827.875,190351.844,207108.328,199852.328,193508.813,184664.313,193462.766,182926.781,-0.005,1.000,0.063,-2.106,-0.519,0.092,80.000,113564.000,1.000
192832.703,190328.328,207081.141,199835.609,193494.141,184618.531,193428.250,182933.031,-0.006,0.999,0.065,-2.045,-0.458,0.153,80.000,113565.000,1.000
192808.125,190296.500,207052.000,199807.172,193464.375,184583.750,193392.938,182898.969,-0.005,0.999,0.068,-2.045,-0.427,0.183,80.000,113566.000,1.000
192800.438,190306.422,207066.484,199815.125,193461.594,184603.328,193401.703,182878.938,-0.007,1.001,0.062,-1.984,-0.336,0.122,80.000,113567.000,1.000
192818.500,190338.250,207102.156,199848.922,193484.844,184646.344,193436.297,182899.063,-0.005,0.999,0.068,-2.014,-0.275,0.214,80.000,113568.000,1.000
192830.297,190345.047,207106.797,199853.297,193492.625,184651.609,193442.281,182920.516,-0.007,0.997,0.069,-2.045,-0.183,0.031,80.000,113569.000,1.000
192828.781,190319.844,207074.969,199829.609,193477.516,184606.016,193401.250,182926.422,-0.006,0.997,0.065,-2.045,-0.153,0.092,80.000,113570.000,1.000
192799.984,190292.656,207043.859,199797.328,193454.891,184581.516,193373.094,182895.031,-0.006,0.998,0.064,-1.984,-0.122,0.061,80.000,113571.000,1.000
192791.500,190308.484,207063.531,199811.016,193467.328,184626.141,193405.813,182888.516,-0.004,0.998,0.066,-1.984,-0.061,-0.031,80.000,113572.000,1.000
192802.578,190334.766,207093.391,199836.406,193487.969,184658.766,193441.844,182904.875,-0.005,0.999,0.064,-1.892,-0.122,-0.122,80.000,113573.000,1.000
192818.406,190345.500,207102.156,199844.813,193499.594,184664.219,193451.500,182930.703,-0.007,0.996,0.065,-1.862,-0.061,-0.122,80.000,113574.000,1.000
192819.031,190321.359,207075.156,199829.172,193493.703,184632.484,193431.375,182947.344,-0.004,0.999,0.067,-1.953,0.000,-0.092,80.000,113575.000,1.000
192787.297,190287.391,207039.563,199796.078,193465.891,184596.625,193393.734,182910.500,-0.002,0.996,0.067,-1.862,0.031,-0.061,80.000,113576.000,1.000
192769.953,190296.328,207051.813,199797.156,193462.672,184620.594,193403.656,182883.406,-0.002,0.997,0.068,-1.831,0.122,0.000,80.000,113577.000,1.000
192782.828,190325.297,207082.125,199821.750,193480.109,184657.688,193436.828,182891.453,-0.002,0.996,0.063,-1.831,0.244,0.000,80.000,113578.000,1.000
192806.781,190345.313,207096.172,199837.844,193495.391,184665.828,193446.219,182917.563,-0.005,0.994,0.065,-1.709,0.305,0.031,80.000,113579.000,1.000
192795.875,190311.344,207058.438,199808.422,193474.297,184619.781,193408.578,182919.266,-0.005,0.995,0.063,-1.648,0.305,-0.092,80.000,113580.000,1.000
192771.203,190282.281,207031.797,199781.781,193453.281,184586.344,193382.922,182892.078,-0.006,0.996,0.065,-1.617,0.244,-0.214,80.000,113581.000,1.000
192753.578,190288.719,207045.203,199789.203,193454.625,184610.938,193403.844,182876.172,-0.011,0.994,0.066,-1.526,0.305,-0.305,80.000,113582.000,1.000
192769.406,190323.953,207081.859,199825.313,193482.875,184664.219,193450.609,182898.609,-0.010,0.998,0.065,-1.373,0.336,-0.305,80.000,113583.000,1.000
192789.609,190343.172,207094.016,199839.719,193500.406,184681.391,193470.094,182927.313,-0.010,0.997,0.065,-1.404,0.244,-0.275,80.000,113584.000,1.000
192781.391,190309.734,207055.484,199807.438,193473.938,184616.297,193416.266,182922.297,-0.010,0.999,0.065,-1.312,0.183,-0.305,80.000,113585.000,1.000
192762.438,190281.656,207031.078,199783.203,193451.672,184582.594,193386.047,182894.313,-0.009,0.999,0.066,-1.343,0.061,-0.366,80.000,113586.000,1.000
192751.078,190290.156,207046.281,199786.422,193450.875,184610.484,193399.906,182868.922,-0.006,0.999,0.063,-1.343,0.122,-0.366,80.000,113587.000,1.000
192772.094,190324.672,207085.172,199817.547,193476.703,184656.078,193442.016,182887.703,-0.007,1.000,0.064,-1.404,0.031,-0.427,80.000,113588.000,1.000
192796.672,190345.594,207100.016,199834.172,193494.688,184671.547,193459.453,182914.250,-0.007,1.002,0.064,-1.434,-0.031,-0.427,80.000,113589.000,1.000
192792.750,190317.156,207067.547,199812.797,193480.203,184628.906,193416.188,182915.156,-0.007,1.002,0.063,-1.404,-0.061,-0.519,80.000,113590.000,1.000
192764.219,190283.188,207036.438,199785.000,193459.359,184602.078,193391.422,182888.063,-0.009,1.003,0.067,-1.465,0.000,-0.580,80.000,113591.000,1.000
192745.625,190285.234,207045.375,199788.031,193456.859,184618.172,193399.906,182864.906,-0.008,1.002,0.068,-1.495,-0.061,-0.580,80.000,113592.000,1.000
192769.766,190327.531,207091.156,199828.891,193491.734,184666.719,193446.672,182895.922,-0.010,1.004,0.066,-1.495,0.000,-0.610,80.000,113593.000,1.000
192789.438,190343.172,207104.484,199842.391,193507.641,184681.297,193465.797,182928.031,-0.010,1.007,0.066,-1.709,-0.153,-0.519,80.000,113594.000,1.000
192789.531,190318.594,207074.344,199820.938,193494.500,184645.094,193438.891,182937.859,-0.011,1.006,0.068,-1.831,-0.244,-0.641,80.000,113595.000,1.000
192759.750,190285.141,207040.906,199791.438,193469.375,184613.609,193408.938,182909.516,-0.012,1.005,0.064,-1.862,-0.336,-0.702,80.000,113596.000,1.000
192744.734,190291.234,207053.969,199802.156,193470.094,184632.031,193416.094,182897.453,-0.011,1.004,0.065,-1.923,-0.397,-0.763,80.000,113597.000,1.000
192754.656,190319.219,207083.828,199826.297,193489.578,184666.641,193446.313,182911.125,-0.009,1.004,0.066,-2.136,-0.519,-0.793,80.000,113598.000,1.000
192778.531,190340.406,207099.922,199838.828,193510.594,184685.672,193469.641,182940.984,-0.010,1.002,0.066,-2.197,-0.671,-0.793,80.000,113599.000,1.000
192779.422,190316.531,207070.594,199817.281,193498.250,184637.750,193434.328,182946.984,-0.010,1.004,0.064,-2.319,-0.671,-0.671,80.000,113600.000,1.000
192759.219,190291.406,207047.266,199794.203,193483.859,184604.500,193413.047,182925.797,-0.009,1.003,0.065,-2.319,-0.793,-0.580,80.000,113601.000,1.000
192747.500,190303.203,207064.875,199801.625,193490.828,184635.078,193439.875,182909.781,-0.007,1.001,0.069,-2.350,-0.763,-0.488,80.000,113602.000,1.000
192766.641,190335.031,207099.734,199831.406,193509.156,184661.359,193459.359,182921.859,-0.008,1.002,0.067,-2.350,-0.732,-0.519,80.000,113603.000,1.000
192787.297,190349.078,207108.406,199840.516,193518.547,184668.781,193465.984,182938.125,-0.009,1.001,0.070,-2.411,-0.854,-0.305,80.000,113604.000,1.000
192782.828,190321.000,207071.484,199813.875,193501.750,184637.750,193439.516,182937.234,-0.009,1.000,0.068,-2.441,-0.916,-0.366,80.000,113605.000,1.000
192755.188,190289.703,207040.109,199786.078,193476.344,184608.344,193408.141,182906.484,-0.007,0.998,0.069,-2.502,-0.946,-0.275,80.000,113606.000,1.000
192748.844,190303.484,207058.797,199794.563,193477.328,184631.313,193416.891,182879.125,-0.005,0.996,0.066,-2.411,-0.946,-0.153,80.000,113607.000,1.000
192768.516,190333.703,207094.375,199824.250,193499.516,184667.969,193457.844,182892.703,-0.006,0.996,0.066,-2.380,-1.007,-0.153,80.000,113608.000,1.000
192789.172,190347.734,207104.922,199836.406,193511.313,184678.703,193473.844,182916.047,-0.006,0.997,0.067,-2.350,-0.977,-0.092,80.000,113609.000,1.000
192789.172,190324.313,207074.703,199816.641,193497.359,184643.391,193439.344,182923.375,-0.006,0.994,0.067,-2.350,-0.916,-0.122,80.000,113610.000,1.000
192755.547,190286.578,207040.016,199786.156,193468.031,184604.313,193405.984,182898.969,-0.008,0.994,0.065,-2.289,-1.007,-0.031,80.000,113611.000,1.000
192735.797,190285.234,207046.453,199786.078,193461.594,184620.672,193416.000,182880.109,-0.009,0.995,0.069,-2.228,-1.007,-0.092,80.000,113612.000,1.000
192748.938,190313.766,207079.266,199817.094,193484.484,184669.141,193449.969,182897.000,-0.010,0.994,0.067,-2.197,-1.038,0.000,80.000,113613.000,1.000
192777.453,190340.406,207100.641,199847.219,193512.297,184694.625,193477.516,182938.844,-0.008,0.994,0.064,-2.075,-0.946,-0.214,80.000,113614.000,1.000
192780.234,190319.391,207073.906,199833.016,193504.156,184651.703,193454.891,182953.781,-0.009,0.995,0.066,-2.075,-0.946,-0.122,80.000,113615.000,1.000
192742.953,190277.188,207033.313,199789.922,193466.703,184603.250,193409.125,182912.828,-0.008,0.996,0.066,-1.923,-0.885,-0.244,80.000,113616.000,1.000
192725.781,190279.422,207043.141,199788.938,193459.813,184615.047,193409.563,182884.844,-0.009,0.996,0.069,-1.801,-0.885,-0.305,80.000,113617.000,1.000
192743.844,190311.438,207078.906,199816.828,193483.234,184654.750,193443.266,182898.078,-0.007,0.998,0.068,-1.862,-0.763,-0.458,80.000,113618.000,1.000
192779.516,190339.688,207101.625,199838.109,193505.594,184674.594,193462.766,182928.469,-0.005,0.997,0.068,-1.770,-0.824,-0.397,80.000,113619.000,1.000
192782.109,190317.422,207073.906,199822.016,193498.250,184650.359,193448.094,182942.156,-0.004,0.998,0.067,-1.801,-0.854,-0.366,80.000,113620.000,1.000
192755.547,190286.672,207043.234,199796.891,193474.922,184613.438,193412.781,182916.406,-0.003,1.000,0.064,-1.801,-0.763,-0.427,80.000,113621.000,1.000
192738.297,190291.938,207051.453,199794.922,193469.109,184626.141,193408.578,182887.875,-0.005,1.000,0.063,-1.801,-0.763,-0.458,80.000,113622.000,1.000
192739.375,190311.172,207073.188,199809.672,193480.547,184660.016,193438.984,182893.688,-0.004,1.000,0.065,-1.770,-0.580,-0.488,80.000,113623.000,1.000
192766.281,190338.250,207093.844,199832.828,193505.672,184684.969,193468.938,182929.906,-0.002,0.999,0.067,-1.770,-0.519,-0.488,80.000,113624.000,1.000
192762.344,190312.422,207062.813,199812.891,193493.078,184645.172,193442.016,182941.969,-0.003,1.001,0.066,-1.678,-0.549,-0.549,80.000,113625.000,1.000
192739.375,190283.000,207037.063,199788.031,193475.641,184620.406,193415.828,182919.000,-0.005,0.998,0.068,-1.740,-0.519,-0.519,80.000,113626.000,1.000
192721.047,190286.938,207046.000,199787.594,193472.500,184637.672,193421.547,182892.984,-0.004,0.997,0.066,-1.740,-0.336,-0.519,80.000,113627.000,1.000
192732.938,190318.859,207077.203,199812.797,193491.813,184675.391,193451.234,182903.172,-0.003,1.000,0.066,-1.740,-0.214,-0.580,80.000,113628.000,1.000
192762.891,190344.422,207098.844,199835.953,193516.141,184697.563,193477.953,182937.328,-0.003,1.001,0.069,-1.709,-0.122,-0.549,80.000,113629.000,1.000
192761.984,190317.781,207066.578,199814.141,193502.016,184655.281,193448.094,182944.828,-0.007,1.001,0.068,-1.678,-0.031,-0.549,80.000,113630.000,1.000
192737.672,190292.125,207037.156,199789.203,193481.094,184630.969,193414.391,182917.203,-0.005,1.001,0.066,-1.678,0.122,-0.580,80.000,113631.000,1.000
192734.000,190307.766,207058.172,199799.922,193488.250,184656.172,193424.938,182904.156,-0.007,1.000,0.068,-1.770,0.031,-0.427,80.000,113632.000,1.000
192744.375,190324.750,207085.078,199818.172,193500.141,184668.594,193456.328,182910.688,-0.007,1.001,0.067,-1.923,0.153,-0.458,80.000,113633.000,1.000
192763.781,190338.797,207095.984,199829.516,193511.844,184673.156,193468.484,182928.734,-0.008,1.001,0.068,-1.892,0.183,-0.519,80.000,113634.000,1.000
192766.281,190316.984,207067.828,199815.672,193503.000,184640.531,193440.234,182941.609,-0.009,1.001,0.064,-1.953,0.183,-0.549,80.000,113635.000,1.000
192742.766,190286.750,207037.422,199791.875,193479.391,184610.125,193408.406,182918.281,-0.009,1.001,0.066,-2.014,0.275,-0.519,80.000,113636.000,1.000
192731.688,190293.469,207051.188,199798.500,193475.641,184628.016,193415.375,182894.672,-0.009,0.999,0.067,-1.984,0.122,-0.610,80.000,113637.000,1.000
192745.000,190315.016,207081.953,199823.531,193488.156,184652.781,193441.656,182899.781,-0.009,0.999,0.068,-1.831,0.061,-0.580,80.000,113638.000,1.000
192772.891,190337.813,207102.688,199843.203,193507.469,184671.281,193461.953,182930.891,-0.010,0.999,0.068,-1.770,0.153,-0.488,80.000,113639.000,1.000
192777.641,190318.047,207077.391,199828.531,193498.531,184641.594,193432.984,182942.234,-0.011,1.000,0.067,-1.801,0.092,-0.671,80.000,113640.000,1.000
192748.844,190286.938,207045.656,199796.000,193472.063,184608.344,193398.828,182908.531,-0.012,0.999,0.066,-1.892,0.000,-0.549,80.000,113641.000,1.000
192735.078,190295.703,207060.578,199797.328,193468.031,184623.000,193407.063,182882.250,-0.014,1.001,0.067,-1.892,-0.153,-0.549,80.000,113642.000,1.000
192754.563,190329.406,207097.859,199826.219,193490.031,184667.078,193447.031,182895.297,-0.013,1.000,0.067,-1.801,-0.214,-0.458,80.000,113643.000,1.000
192775.766,190344.063,207108.328,199838.188,193502.453,184681.656,193460.078,182918.547,-0.013,1.001,0.066,-1.862,-0.153,-0.519,80.000,113644.000,1.000
192767.797,190312.063,207069.516,199810.203,193482.781,184633.906,193418.500,182919.891,-0.010,1.001,0.064,-1.892,-0.214,-0.519,80.000,113645.000,1.000
192738.297,190275.219,207035.188,199784.906,193456.859,184595.281,193383.016,182893.422,-0.010,1.000,0.066,-1.923,-0.244,-0.458,80.000,113646.000,1.000
192730.969,190287.203,207051.906,199795.813,193462.672,184617.734,193401.422,182879.656,-0.010,0.997,0.064,-1.953,-0.305,-0.427,80.000,113647.000,1.000
192744.734,190320.016,207082.938,199818.891,193485.109,184654.828,193441.219,182895.750,-0.010,0.996,0.064,-1.923,-0.275,-0.336,80.000,113648.000,1.000
192775.125,190343.797,207103.766,199841.406,193510.234,184680.844,193467.234,182934.828,-0.009,0.996,0.065,-1.801,-0.305,-0.214,80.000,113649.000,1.000
192777.188,190317.156,207075.875,199822.734,193503.172,184648.313,193451.938,182950.734,-0.009,0.997,0.064,-1.617,-0.305,-0.214,80.000,113650.000,1.000
192738.031,190273.250,207033.406,199779.719,193470.266,184609.688,193418.234,182911.938,-0.009,0.998,0.064,-1.434,-0.336,-0.214,80.000,113651.000,1.000
192717.828,190269.500,207037.156,199777.313,193455.969,184601.641,193394.906,182881.000,-0.010,0.996,0.064,-1.526,-0.366,-0.275,80.000,113652.000,1.000
192739.375,190310.719,207077.031,199811.734,193484.484,184651.703,193440.234,182903.797,-0.009,0.996,0.065,-1.526,-0.580,-0.275,80.000,113653.000,1.000
192766.188,190333.875,207092.859,199830.594,193502.281,184661.891,193457.578,182933.750,-0.009,0.997,0.065,-1.434,-0.488,-0.183,80.000,113654.000,1.000
192772.266,190313.844,207067.906,199816.375,193496.641,184633.828,193438.359,182946.438,-0.010,0.996,0.061,-1.526,-0.488,-0.183,80.000,113655.000,1.000
192730.422,190269.328,207022.406,199772.391,193459.094,184594.844,193392.750,182897.453,-0.012,0.995,0.067,-1.404,-0.519,-0.214,80.000,113656.000,1.000
192730.078,190288.813,207045.922,199792.953,193468.656,184622.563,193414.750,182884.750,-0.012,0.996,0.064,-1.312,-0.549,-0.183,80.000,113657.000,1.000
192755.547,190327.797,207086.953,199832.109,193495.391,184667.344,193456.688,182903.531,-0.012,0.997,0.064,-1.221,-0.702,-0.336,80.000,113658.000,1.000
192774.688,190345.234,207098.406,199840.969,193509.609,184688.188,193476.000,182930.625,-0.011,1.000,0.064,-1.221,-0.763,-0.458,80.000,113659.000,1.000
192764.578,190309.109,207057.094,199807.266,193482.609,184634.266,193423.156,182924.094,-0.011,1.000,0.063,-1.282,-0.763,-0.519,80.000,113660.000,1.000
192732.938,190266.813,207018.297,199774.000,193447.469,184585.359,193382.109,182888.688,-0.011,0.999,0.062,-1.282,-0.793,-0.580,80.000,113661.000,1.000
192726.047,190277.016,207037.156,199785.984,193448.359,184603.156,193396.422,182870.188,-0.010,1.000,0.062,-1.373,-0.885,-0.671,80.000,113662.000,1.000
192742.766,190308.578,207071.125,199812.453,193468.750,184640.703,193429.234,182883.141,-0.010,0.999,0.063,-1.343,-0.824,-0.641,80.000,113663.000,1.000
192777.453,190338.703,207095.891,199837.484,193494.234,184664.484,193455.516,182919.531,-0.008,1.000,0.065,-1.495,-0.824,-0.732,80.000,113664.000,1.000
192771.469,190312.500,207061.656,199815.391,193479.750,184627.391,193422.438,182926.422,-0.008,0.999,0.064,-1.434,-0.702,-0.702,80.000,113665.000,1.000
192742.953,190282.641,207029.109,199783.563,193457.750,184606.109,193399.469,182903.703,-0.007,1.002,0.065,-1.526,-0.702,-0.702,80.000,113666.000,1.000
192726.938,190285.859,207040.906,199787.234,193457.125,184618.625,193413.500,182882.422,-0.005,1.004,0.064,-1.648,-0.671,-0.671,80.000,113667.000,1.000
192738.922,190316.984,207076.047,199816.016,193481.891,184659.922,193450.688,182898.438,-0.005,1.004,0.062,-1.740,-0.641,-0.702,80.000,113668.000,1.000
192763.422,190336.016,207091.422,199832.563,193498.875,184676.641,193459.906,182923.375,-0.005,1.004,0.062,-1.831,-0.580,-0.458,80.000,113669.000,1.000
192764.406,190309.016,207060.938,199811.906,193484.938,184631.313,193427.453,182932.859,-0.006,1.004,0.060,-1.892,-0.610,-0.458,80.000,113670.000,1.000
192727.391,190267.531,207019.453,199772.391,193453.281,184588.766,193395.703,182902.016,-0.006,1.003,0.065,-2.014,-0.580,-0.427,80.000,113671.000,1.000
192719.797,190279.422,207037.328,199782.578,193459.453,184614.781,193413.953,182889.672,-0.005,1.004,0.064,-2.197,-0.488,-0.366,80.000,113672.000,1.000
192757.781,190331.188,207092.406,199826.484,193498.344,184675.844,193461.063,182909.969,-0.005,1.003,0.064,-2.258,-0.519,-0.336,80.000,113673.000,1.000
192779.250,190345.938,207106.719,199837.031,193509.609,184682.281,193466.344,182930.984,-0.008,1.001,0.062,-2.258,-0.427,-0.336,80.000,113674.000,1.000
192762.891,190303.297,207059.328,199797.969,193477.063,184623.000,193411.078,182920.063,-0.009,1.001,0.063,-2.289,-0.427,-0.366,80.000,113675.000,1.000
192748.313,190281.578,207037.781,199778.031,193461.156,184593.500,193385.875,182898.969,-0.008,1.000,0.067,-2.380,-0.427,-0.336,80.000,113676.000,1.000
192739.813,190296.953,207056.375,199784.734,193467.672,184628.547,193402.953,182880.281,-0.007,1.000,0.067,-2.411,-0.366,-0.183,80.000,113677.000,1.000
192758.063,190331.734,207092.313,199814.688,193491.281,184665.203,193442.734,182893.156,-0.010,1.000,0.066,-2.502,-0.275,-0.153,80.000,113678.000,1.000
192791.047,190357.031,207115.469,199841.859,193514.172,184678.969,193470.094,182925.609,-0.012,0.999,0.069,-2.502,-0.458,-0.244,80.000,113679.000,1.000
192782.203,190324.750,207076.672,199814.406,193494.953,184634.266,193432.359,182929.094,-0.012,0.999,0.066,-2.533,-0.397,-0.122,80.000,113680.000,1.000
192756.453,190293.906,207046.188,199786.250,193469.281,184598.234,193399.016,182899.063,-0.010,0.999,0.065,-2.625,-0.458,-0.183,80.000,113681.000,1.000
192752.422,190304.109,207068.000,199801.266,193473.484,184622.203,193417.172,182885.016,-0.011,0.999,0.065,-2.594,-0.336,-0.153,80.000,113682.000,1.000
192762.891,190325.828,207095.094,199821.469,193485.297,184657.063,193439.516,182888.328,-0.009,0.999,0.065,-2.625,-0.397,-0.092,80.000,113683.000,1.000
192798.281,190355.422,207121.828,199852.406,193511.406,184682.547,193466.250,182925.609,-0.007,1.000,0.066,-2.594,-0.458,-0.092,80.000,113684.000,1.000
192792.922,190326.719,207087.578,199828.984,193493.703,184638.734,193432.000,182931.250,-0.009,1.000,0.067,-2.472,-0.305,-0.183,80.000,113685.000,1.000
192755.109,190284.609,207045.297,199787.406,193457.672,184590.375,193385.781,182888.781,-0.008,0.999,0.066,-2.472,-0.397,-0.275,80.000,113686.000,1.000
192740.438,190291.578,207057.266,199794.922,193458.734,184617.016,193401.156,182872.234,-0.009,1.000,0.066,-2.441,-0.397,-0.305,80.000,113687.000,1.000
192755.469,190324.125,207089.734,199822.734,193481.891,184662.797,193439.516,182893.063,-0.009,1.000,0.066,-2.502,-0.458,-0.397,80.000,113688.000,1.000
192777.016,190343.703,207101.531,199834.969,193497.453,184678.344,193458.016,182918.734,-0.006,0.998,0.070,-2.502,-0.427,-0.366,80.000,113689.000,1.000
192777.906,190318.234,207070.141,199815.844,193482.516,184630.609,193421.094,182929.016,-0.007,0.997,0.069,-2.533,-0.397,-0.397,80.000,113690.000,1.000
192751.344,190291.766,207040.828,199789.203,193463.563,184604.500,193400.891,182907.828,-0.006,0.997,0.068,-2.563,-0.458,-0.366,80.000,113691.000,1.000
192742.141,190302.406,207059.781,199803.234,193472.688,184640.078,193423.594,182898.344,-0.007,0.999,0.064,-2.380,-0.488,-0.458,80.000,113692.000,1.000
192765.922,190335.656,207100.813,199838.828,193500.484,184688.453,193468.578,182919.172,-0.005,1.001,0.066,-2.380,-0.305,-0.397,80.000,113693.000,1.000
192791.766,190353.984,207115.656,199848.563,193512.563,184686.031,193466.969,182937.688,-0.005,0.999,0.070,-2.350,-0.336,-0.427,80.000,113694.000,1.000
192790.156,190327.266,207084.000,199824.422,193498.531,184637.125,193431.828,182939.734,-0.006,0.997,0.071,-2.350,-0.275,-0.427,80.000,113695.000,1.000
192761.813,190298.109,207052.891,199795.375,193478.766,184611.656,193412.516,182914.609,-0.006,0.998,0.069,-2.411,-0.244,-0.397,80.000,113696.000,1.000
192727.297,190280.141,207045.656,199781.063,193456.953,184604.766,193398.125,182874.656,-0.006,0.998,0.070,-2.350,-0.305,-0.488,80.000,113697.000,1.000
192759.578,190324.391,207096.609,199826.484,193493.422,184659.391,193445.063,182900.672,-0.007,0.999,0.071,-2.350,-0.214,-0.427,80.000,113698.000,1.000
192781.844,190343.438,207110.016,199835.609,193505.141,184670.391,193452.297,182920.516,-0.008,1.000,0.070,-2.228,-0.214,-0.519,80.000,113699.000,1.000
192778.172,190318.047,207076.047,199809.766,193487.531,184626.141,193419.406,182924.719,-0.008,0.999,0.068,-2.136,-0.305,-0.549,80.000,113700.000,1.000
192747.422,190280.406,207037.609,199773.469,193453.547,184580.984,193376.656,182887.797,-0.008,0.998,0.069,-2.136,-0.305,-0.458,80.000,113701.000,1.000
192745.813,190293.469,207058.797,199785.891,193458.469,184610.313,193396.594,182870.453,-0.010,0.997,0.071,-2.197,-0.366,-0.488,80.000,113702.000,1.000
192765.828,190328.516,207094.828,199816.641,193481.719,184659.844,193435.938,182883.406,-0.010,0.998,0.071,-2.167,-0.305,-0.488,80.000,113703.000,1.000
192790.250,190347.828,207108.766,199832.563,193498.438,184677.547,193449.797,182909.078,-0.010,0.996,0.069,-2.136,-0.244,-0.549,80.000,113704.000,1.000
192795.078,190331.281,207083.828,199815.484,193491.734,184644.281,193429.406,182919.266,-0.009,0.997,0.070,-2.136,-0.305,-0.580,80.000,113705.000,1.000
192775.844,190304.641,207060.219,199797.156,193473.578,184614.156,193401.781,182895.484,-0.010,0.997,0.067,-2.045,-0.366,-0.610,80.000,113706.000,1.000
192770.031,190316.703,207079.438,199808.781,193476.438,184629.266,193415.641,182880.547,-0.010,0.998,0.070,-2.045,-0.427,-0.641,80.000,113707.000,1.000
192761.719,190325.109,207090.172,199814.766,193474.750,184648.484,193431.375,182874.297,-0.012,0.999,0.069,-2.045,-0.366,-0.732,80.000,113708.000,1.000
192773.797,190332.172,207095.453,199821.391,193481.453,184654.031,193440.766,182893.344,-0.013,1.000,0.070,-1.953,-0.488,-0.702,80.000,113709.000,1.000
192782.375,190318.500,207076.047,199812.453,193478.938,184627.469,193416.813,182912.203,-0.011,1.001,0.069,-1.984,-0.488,-0.702,80.000,113710.000,1.000
192755.906,190288.813,207044.578,199784.016,193456.859,184598.063,193391.422,182892.359,-0.010,1.001,0.069,-2.075,-0.580,-0.610,80.000,113711.000,1.000
192738.563,190295.781,207055.031,199787.047,193453.547,184613.609,193398.125,182873.578,-0.011,1.000,0.071,-2.106,-0.671,-0.549,80.000,113712.000,1.000
192756.719,190329.047,207092.594,199818.344,193478.500,184662.609,193434.859,182892.172,-0.010,1.000,0.072,-2.014,-0.763,-0.549,80.000,113713.000,1.000
192788.094,190349.969,207113.781,199844.625,193501.828,184682.813,193459.094,182928.563,-0.013,0.999,0.071,-2.014,-0.671,-0.427,80.000,113714.000,1.000
192782.109,190320.203,207076.219,199817.359,193481.891,184627.391,193418.859,182928.297,-0.014,1.000,0.072,-2.014,-0.641,-0.488,80.000,113715.000,1.000
192756.000,190289.078,207042.438,199787.141,193458.734,184595.641,193387.750,182896.906,-0.012,0.999,0.071,-1.953,-0.824,-0.366,80.000,113716.000,1.000
192742.953,190292.391,207053.969,199794.750,193461.063,184620.234,193405.094,182877.422,-0.010,1.000,0.072,-2.045,-0.854,-0.305,80.000,113717.000,1.000
192767.094,190333.250,207095.891,199832.203,193492.172,184667.703,193450.875,182904.250,-0.010,0.998,0.072,-2.167,-0.702,-0.275,80.000,113718.000,1.000
192787.734,190352.469,207108.688,199844.906,193507.281,184683.625,193466.516,182929.547,-0.009,1.000,0.071,-2.014,-0.732,-0.153,80.000,113719.000,1.000
192765.297,190306.516,207056.469,199802.875,193471.609,184621.391,193413.406,182916.313,-0.009,1.000,0.072,-2.106,-0.793,-0.275,80.000,113720.000,1.000
192729.094,190261.719,207013.906,199763.000,193437.281,184580.531,193377.828,182878.938,-0.010,1.000,0.069,-2.167,-0.824,-0.214,80.000,113721.000,1.000
192728.016,190278.000,207038.141,199781.781,193448.813,184612.984,193409.828,182872.688,-0.009,0.999,0.068,-2.045,-0.824,-0.153,80.000,113722.000,1.000
192745.891,190310.547,207073.094,199808.875,193465.797,184644.547,193430.391,182879.750,-0.010,0.999,0.067,-2.075,-0.793,-0.122,80.000,113723.000,1.000
192766.281,190328.156,207084.719,199820.313,193477.063,184653.141,193436.203,182898.172,-0.009,0.998,0.069,-1.984,-0.824,-0.153,80.000,113724.000,1.000
192770.578,190309.375,207058.344,199801.984,193470.359,184623.547,193409.750,182910.406,-0.010,0.997,0.068,-1.892,-0.854,-0.061,80.000,113725.000,1.000
192744.203,190277.547,207027.500,199772.031,193447.203,184580.266,193379.172,182883.594,-0.008,0.999,0.069,-1.801,-0.854,-0.031,80.000,113726.000,1.000
192739.281,190293.375,207051.453,199785.797,193456.859,184610.313,193400.094,182871.609,-0.006,0.998,0.069,-1.892,-0.854,-0.061,80.000,113727.000,1.000
192753.766,190318.938,207085.250,199812.453,193475.641,184651.703,193432.281,182880.813,-0.008,0.999,0.071,-1.831,-0.824,-0.122,80.000,113728.000,1.000
192785.063,190343.984,207107.516,199836.047,193498.969,184676.297,193456.234,182914.250,-0.008,0.997,0.069,-1.892,-0.763,-0.031,80.000,113729.000,1.000
192786.313,190323.141,207077.125,199816.016,193488.516,184640.891,193423.953,182924.188,-0.008,0.998,0.069,-1.740,-0.702,0.092,80.000,113730.000,1.000
192749.828,190286.484,207036.703,199779.000,193459.188,184607.172,193392.750,182893.250,-0.008,0.998,0.070,-1.770,-0.580,0.092,80.000,113731.000,1.000
192722.922,190280.766,207037.422,199772.219,193445.234,184611.656,193394.813,182864.375,-0.007,1.000,0.065,-1.740,-0.549,0.092,80.000,113732.000,1.000
192741.875,190314.391,207075.781,199806.813,193469.109,184660.375,193430.125,182885.203,-0.006,0.998,0.070,-1.709,-0.458,0.031,80.000,113733.000,1.000
192778.703,190345.047,207104.203,199833.906,193495.313,184687.109,193452.563,182919.438,-0.009,0.998,0.072,-1.740,-0.427,-0.031,80.000,113734.000,1.000
192777.375,190314.297,207072.031,199810.563,193475.094,184625.422,193417.609,182926.781,-0.006,1.000,0.066,-1.801,-0.397,-0.031,80.000,113735.000,1.000
192749.391,190276.031,207036.891,199779.281,193443.891,184578.922,193379.531,182892.797,-0.006,1.000,0.071,-1.709,-0.305,0.000,80.000,113736.000,1.000
192734.453,190282.281,207047.172,199779.188,193440.859,184598.859,193389.625,182868.656,-0.006,1.002,0.072,-1.709,-0.275,-0.061,80.000,113737.000,1.000
192763.875,190321.359,207091.688,199821.297,193472.063,184646.703,193434.063,182889.844,-0.004,1.000,0.070,-1.709,-0.275,-0.153,80.000,113738.000,1.000
192796.500,190348.266,207114.219,199845.797,193497.453,184673.875,193456.953,182924.719,-0.003,0.999,0.070,-1.740,-0.275,-0.153,80.000,113739.000,1.000
192790.594,190320.016,207080.344,199822.453,193484.750,184632.219,193423.953,182935.813,-0.002,0.998,0.071,-1.709,-0.092,-0.153,80.000,113740.000,1.000
192760.203,190282.203,207043.859,199789.297,193460.531,184596.094,193394.094,182907.828,-0.002,0.998,0.069,-1.709,-0.061,-0.153,80.000,113741.000,1.000
192722.375,190263.328,207030.453,199768.016,193437.906,184593.953,193383.375,182861.688,-0.003,0.998,0.067,-1.678,0.092,-0.061,80.000,113742.000,1.000
192739.906,190299.281,207067.375,199797.969,193464.281,184640.266,193426.375,182879.125,-0.002,0.996,0.065,-1.678,0.214,0.000,80.000,113743.000,1.000
192773.078,190328.594,207093.484,199827.641,193494.047,184667.000,193459.094,182918.453,-0.003,0.998,0.066,-1.587,0.427,0.031,80.000,113744.000,1.000
192777.547,190309.109,207065.938,199810.656,193483.063,184625.063,193422.344,182928.734,-0.007,0.996,0.066,-1.587,0.397,-0.031,80.000,113745.000,1.000
192750.359,190281.391,207033.844,199779.547,193458.734,184596.625,193395.891,182901.031,-0.006,0.996,0.066,-1.282,0.336,-0.183,80.000,113746.000,1.000
192740.531,190290.781,207050.203,199786.875,193459.359,184619.156,193403.313,182879.391,-0.007,0.997,0.066,-1.282,0.336,-0.183,80.000,113747.000,1.000
192762.609,190326.281,207088.922,199821.563,193484.219,184658.406,193437.906,182894.594,-0.008,0.995,0.067,-1.221,0.397,-0.305,80.000,113748.000,1.000
192788.641,190345.859,207104.391,199837.844,193501.297,184677.719,193460.703,182921.328,-0.009,0.996,0.063,-1.190,0.397,-0.305,80.000,113749.000,1.000
192786.578,190312.500,207068.188,199811.734,193481.531,184633.375,193426.813,182924.094,-0.007,0.997,0.064,-1.221,0.366,-0.397,80.000,113750.000,1.000
192756.453,190273.344,207031.516,199778.656,193451.406,184590.188,193383.375,182888.328,-0.006,0.999,0.064,-1.221,0.427,-0.397,80.000,113751.000,1.000
192745.000,190282.734,207047.438,199786.078,193454.000,184614.328,193401.781,182871.875,-0.007,0.998,0.066,-1.129,0.397,-0.336,80.000,113752.000,1.000
192764.313,190317.781,207086.953,199819.781,193478.859,184657.422,193440.328,182893.250,-0.008,1.002,0.064,-1.129,0.336,-0.397,80.000,113753.000,1.000
192792.828,190340.672,207110.016,199842.750,193501.031,184679.781,193465.438,182925.969,-0.008,1.002,0.066,-1.160,0.275,-0.458,80.000,113754.000,1.000
192794.891,190317.609,207080.781,199820.672,193487.344,184641.875,193433.172,182929.188,-0.008,1.002,0.066,-1.190,0.305,-0.275,80.000,113755.000,1.000
192759.047,190277.547,207038.672,199780.609,193452.484,184592.250,193384.000,182891.188,-0.010,1.005,0.067,-1.282,0.183,-0.519,80.000,113756.000,1.000
192742.500,190284.969,207050.750,199788.750,193456.859,184617.547,193409.922,182877.875,-0.011,1.005,0.066,-1.404,0.214,-0.519,80.000,113757.000,1.000
192752.328,190312.234,207079.359,199812.359,193475.094,184656.438,193442.203,182886.719,-0.012,1.006,0.066,-1.434,0.275,-0.641,80.000,113758.000,1.000
192779.688,190334.594,207098.313,199833.094,193492.719,184666.453,193445.953,182914.969,-0.011,1.006,0.069,-1.526,0.153,-0.793,80.000,113759.000,1.000
192775.125,190306.422,207063.531,199805.297,193476.344,184620.500,193412.688,182918.109,-0.010,1.005,0.069,-1.587,-0.061,-0.854,80.000,113760.000,1.000
192753.859,190281.578,207038.141,199781.328,193461.328,184601.281,193395.703,182898.438,-0.010,1.005,0.068,-1.709,-0.122,-0.916,80.000,113761.000,1.000
192736.953,190283.359,207046.094,199782.938,193457.125,184613.703,193404.734,182874.469,-0.010,1.005,0.066,-1.831,-0.244,-0.885,80.000,113762.000,1.000
192746.172,190305.531,207073.094,199805.828,193472.063,184636.766,193432.453,182882.516,-0.010,1.004,0.068,-1.801,-0.305,-0.885,80.000,113763.000,1.000
192778.344,190330.391,207097.141,199832.109,193497.266,184659.844,193457.938,182918.375,-0.009,1.003,0.070,-1.831,-0.458,-1.038,80.000,113764.000,1.000
192786.125,190312.422,207073.813,199818.250,193490.563,184628.641,193438.078,182933.922,-0.010,1.002,0.069,-1.923,-0.580,-1.007,80.000,113765.000,1.000
192754.844,190272.188,207034.656,199780.797,193456.953,184584.297,193391.422,182897.266,-0.013,1.001,0.068,-1.831,-0.641,-0.885,80.000,113766.000,1.000
192749.203,190288.359,207056.203,199791.969,193464.188,184616.922,193410.188,182879.750,-0.011,1.000,0.070,-1.862,-0.763,-0.732,80.000,113767.000,1.000
192763.063,190317.781,207088.750,199817.813,193479.219,184649.563,193432.281,182884.750,-0.011,0.998,0.070,-1.831,-0.824,-0.641,80.000,113768.000,1.000
192789.797,190341.109,207108.406,199837.031,193499.422,184668.953,193455.703,182916.938,-0.009,0.999,0.071,-1.892,-0.916,-0.580,80.000,113769.000,1.000
192786.125,190311.969,207073.453,199810.922,193481.000,184628.453,193417.703,182919.266,-0.010,0.999,0.066,-1.923,-0.916,-0.366,80.000,113770.000,1.000
192749.922,190269.141,207028.844,199772.656,193443.000,184582.063,193369.781,182876.891,-0.010,0.997,0.066,-1.923,-0.977,-0.366,80.000,113771.000,1.000
192751.531,190291.578,207055.656,199798.313,193458.297,184618.359,193400.094,182875.547,-0.009,0.998,0.068,-1.892,-1.007,-0.275,80.000,113772.000,1.000
192768.688,190323.594,207092.313,199828.453,193482.516,184656.891,193440.406,182894.313,-0.010,0.997,0.067,-1.831,-0.916,-0.122,80.000,113773.000,1.000
192792.656,190343.531,207107.781,199843.016,193498.531,184670.203,193456.328,182919.625,-0.010,0.996,0.069,-1.709,-0.946,-0.092,80.000,113774.000,1.000
192788.188,190314.297,207071.578,199813.156,193481.984,184633.109,193426.109,182920.516,-0.010,0.993,0.069,-1.587,-1.068,-0.061,80.000,113775.000,1.000
192757.703,190275.219,207032.422,199779.453,193450.875,184585.813,193382.750,182887.969,-0.009,0.994,0.069,-1.526,-1.007,-0.122,80.000,113776.000,1.000
192754.297,190291.234,207053.703,199795.281,193461.422,184617.188,193408.313,182882.156,-0.008,0.994,0.069,-1.526,-0.946,-0.061,80.000,113777.000,1.000
192767.359,190323.141,207085.250,199819.328,193482.969,184663.234,193452.391,182895.578,-0.011,0.998,0.070,-1.434,-1.038,-0.153,80.000,113778.000,1.000
192785.859,190336.641,207094.563,199828.359,193491.109,184662.609,193448.359,182912.203,-0.011,0.999,0.068,-1.373,-1.190,-0.153,80.000,113779.000,1.000
192791.859,190317.328,207070.859,199814.141,193484.219,184623.188,193421.359,182927.766,-0.010,1.000,0.071,-1.556,-1.038,-0.153,80.000,113780.000,1.000
192764.938,190284.438,207037.250,199782.219,193458.734,184590.641,193390.250,182897.531,-0.008,0.996,0.071,-1.587,-0.946,-0.031,80.000,113781.000,1.000
192758.688,190299.453,207057.719,199791.875,193462.766,184619.344,193406.078,182874.734,-0.008,0.997,0.068,-1.526,-0.977,-0.122,80.000,113782.000,1.000
192768.063,190320.734,207085.172,199811.469,193474.656,184647.234,193427.984,182878.406,-0.004,0.998,0.066,-1.526,-1.160,-0.183,80.000,113783.000,1.000
192798.469,190344.250,207106.531,199834.891,193497.000,184668.594,193453.281,182911.578,-0.005,0.999,0.066,-1.587,-1.068,-0.214,80.000,113784.000,1.000
192798.281,190322.344,207075.688,199815.938,193485.828,184632.656,193426.188,182919.984,-0.004,1.000,0.071,-1.526,-1.038,-0.214,80.000,113785.000,1.000
192758.859,190280.047,207031.172,199775.875,193450.688,184583.750,193378.188,182883.594,-0.003,0.997,0.069,-1.526,-0.977,-0.214,80.000,113786.000,1.000
192745.625,190287.469,207045.922,199783.203,193451.938,184603.609,193389.531,182864.188,-0.004,0.997,0.067,-1.495,-0.885,-0.244,80.000,113787.000,1.000
192766.734,190324.219,207088.469,199821.469,193480.547,184649.641,193434.156,182885.203,-0.004,1.000,0.066,-1.526,-0.702,-0.214,80.000,113788.000,1.000
192795.969,190347.734,207109.031,199841.406,193502.094,184675.391,193455.609,182915.594,-0.005,0.998,0.071,-1.343,-0.610,-0.275,80.000,113789.000,1.000
192790.781,190316.984,207072.469,199815.313,193481.719,184628.188,193419.313,182915.781,-0.001,0.997,0.065,-1.312,-0.580,-0.244,80.000,113790.000,1.000
192756.797,190276.031,207032.234,199777.313,193448.359,184586.969,193376.938,182880.906,-0.001,0.998,0.065,-1.343,-0.458,-0.183,80.000,113791.000,1.000
192748.047,190287.922,207048.781,199786.969,193454.625,184618.094,193402.328,182867.313,-0.003,0.998,0.065,-1.282,-0.366,-0.244,80.000,113792.000,1.000
192759.938,190313.844,207079.000,199813.250,193472.859,184650.188,193428.781,182880.016,-0.003,0.996,0.068,-1.251,-0.214,-0.244,80.000,113793.000,1.000
192793.375,190342.547,207104.844,199838.281,193498.703,184669.500,193449.797,182916.578,-0.003,0.996,0.069,-1.282,-0.153,-0.214,80.000,113794.000,1.000
192793.813,190319.031,207073.813,199822.453,193490.656,184640.344,193427.172,182925.078,-0.004,0.999,0.069,-1.343,-0.031,-0.183,80.000,113795.000,1.000
192758.594,190279.609,207030.813,199783.125,193458.656,184598.328,193385.422,182890.203,-0.005,1.000,0.068,-1.221,0.000,-0.214,80.000,113796.000,1.000
192743.391,190280.672,207038.672,199780.891,193452.391,184606.109,193387.750,182864.906,-0.004,0.998,0.067,-1.343,0.031,-0.214,80.000,113797.000,1.000
192764.141,190315.094,207080.344,199814.953,193479.219,184646.969,193432.547,182885.016,-0.004,0.999,0.064,-1.282,0.214,-0.275,80.000,113798.000,1.000
192789.438,190337.719,207099.922,199830.422,193495.391,184662.344,193450.688,182908.266,-0.006,0.999,0.069,-1.404,0.153,-0.366,80.000,113799.000,1.000
192789.438,190313.484,207069.875,199808.328,193482.781,184628.453,193425.922,182916.766,-0.008,0.999,0.071,-1.404,0.153,-0.366,80.000,113800.000,1.000
192757.969,190276.125,207033.125,199776.234,193454.453,184588.844,193388.469,182889.141,-0.009,0.999,0.069,-1.312,0.183,-0.366,80.000,113801.000,1.000
192747.953,190289.078,207050.750,199785.797,193459.188,184616.297,193407.234,182876.438,-0.007,1.001,0.064,-1.373,0.275,-0.427,80.000,113802.000,1.000
192767.172,190322.344,207086.688,199815.125,193479.656,184650.547,193436.656,182887.250,-0.008,1.000,0.064,-1.434,0.214,-0.488,80.000,113803.000,1.000
192804.719,190355.594,207114.672,199843.563,193507.906,184678.344,193461.156,182920.609,-0.008,1.000,0.066,-1.434,0.275,-0.397,80.000,113804.000,1.000
192805.531,190332.172,207085.609,199826.844,193497.906,184649.109,193434.953,182933.297,-0.008,1.002,0.066,-1.404,0.244,-0.519,80.000,113805.000,1.000
192759.047,190279.516,207033.125,199777.578,193453.641,184591.625,193380.422,182886.984,-0.009,1.002,0.066,-1.404,0.122,-0.427,80.000,113806.000,1.000
192736.688,190278.000,207038.313,199775.781,193445.859,184602.078,193389.984,182861.781,-0.010,1.001,0.067,-1.587,0.153,-0.397,80.000,113807.000,1.000
192756.000,190317.875,207079.266,199811.469,193475.281,184651.875,193439.344,182886.453,-0.011,1.002,0.067,-1.617,0.061,-0.427,80.000,113808.000,1.000
192779.422,190334.500,207094.016,199826.656,193489.141,184665.734,193449.266,182907.016,-0.011,1.003,0.067,-1.678,0.061,-0.488,80.000,113809.000,1.000
192781.844,190309.375,207064.328,199807.625,193476.078,184628.375,193421.547,182917.656,-0.012,1.003,0.067,-1.740,-0.061,-0.427,80.000,113810.000,1.000
192752.250,190269.688,207025.984,199774.625,193444.250,184580.172,193383.188,182888.516,-0.010,1.001,0.068,-1.770,-0.153,-0.366,80.000,113811.000,1.000
192748.578,190284.797,207046.188,199787.406,193449.344,184606.906,193400.359,182876.266,-0.011,0.998,0.066,-1.678,-0.092,-0.336,80.000,113812.000,1.000
192761.359,190310.359,207076.313,199811.016,193463.203,184634.188,193422.344,182880.734,-0.010,0.997,0.064,-1.678,-0.092,-0.275,80.000,113813.000,1.000
192790.953,190334.328,207097.234,199829.438,193479.031,184645.359,193431.641,182901.031,-0.012,0.997,0.064,-1.648,-0.153,-0.153,80.000,113814.000,1.000
192798.563,190317.422,207074.891,199814.688,193471.969,184610.750,193411.359,182914.703,-0.012,0.995,0.065,-1.556,-0.305,-0.092,80.000,113815.000,1.000
192776.828,190288.281,207046.719,199788.750,193451.578,184579.016,193378.719,182889.938,-0.013,0.994,0.064,-1.526,-0.275,-0.092,80.000,113816.000,1.000
192759.750,190290.953,207055.578,199789.828,193447.828,184597.797,193387.844,182863.828,-0.012,0.996,0.063,-1.434,-0.244,-0.061,80.000,113817.000,1.000
192767.625,190313.313,207083.016,199812.625,193463.563,184630.688,193416.984,182870.984,-0.011,0.996,0.062,-1.221,-0.336,-0.153,80.000,113818.000,1.000
192793.469,190337.891,207102.328,199829.344,193486.281,184660.828,193441.938,182899.953,-0.010,0.996,0.065,-1.068,-0.427,-0.092,80.000,113819.000,1.000
192798.109,190318.766,207076.047,199814.406,193479.297,184627.297,193414.219,182910.328,-0.010,0.995,0.065,-1.099,-0.458,-0.031,80.000,113820.000,1.000
192770.750,190283.531,207042.516,199785.984,193455.875,184583.672,193379.172,182888.953,-0.010,0.995,0.061,-1.160,-0.519,-0.153,80.000,113821.000,1.000
192753.500,190288.719,207052.359,199788.125,193456.859,184608.250,193395.891,182872.063,-0.008,0.997,0.063,-1.068,-0.488,-0.031,80.000,113822.000,1.000
192763.781,190314.734,207082.656,199812.172,193475.719,184644.375,193424.500,182884.125,-0.009,0.997,0.063,-1.038,-0.549,-0.183,80.000,113823.000,1.000
192796.328,190343.359,207108.688,199838.906,193505.500,184671.547,193451.859,182922.578,-0.011,0.999,0.065,-0.977,-0.549,-0.153,80.000,113824.000,1.000
192800.531,190324.938,207082.750,199823.703,193499.063,184644.281,193433.797,182935.000,-0.010,1.001,0.066,-1.007,-0.580,-0.214,80.000,113825.000,1.000
192759.047,190276.297,207032.859,199777.484,193457.391,184582.063,193385.156,182889.484,-0.011,1.000,0.066,-0.977,-0.763,-0.244,80.000,113826.000,1.000
192736.156,190275.047,207036.078,199774.984,193451.859,184594.031,193393.375,182861.688,-0.012,1.001,0.064,-0.946,-0.732,-0.366,80.000,113827.000,1.000
192755.469,190312.063,207076.859,199810.563,193483.234,184649.016,193439.516,182886.984,-0.012,1.002,0.063,-1.038,-0.763,-0.366,80.000,113828.000,1.000
192781.656,190333.703,207097.500,199828.188,193502.547,184663.859,193456.859,182914.703,-0.011,1.002,0.062,-1.160,-0.824,-0.366,80.000,113829.000,1.000
192785.688,190311.172,207070.500,199808.250,193489.141,184619.344,193421.547,182921.234,-0.006,1.002,0.060,-1.190,-0.824,-0.427,80.000,113830.000,1.000
192762.891,190278.984,207041.266,199777.125,193463.125,184579.188,193388.828,182892.625,-0.005,1.003,0.061,-1.373,-0.854,-0.427,80.000,113831.000,1.000
192760.922,190293.734,207064.875,199788.219,193465.094,184594.578,193398.922,182874.109,-0.007,1.001,0.061,-1.434,-0.824,-0.519,80.000,113832.000,1.000
192776.469,190323.953,207097.063,199812.359,193480.203,184631.500,193424.313,182876.625,-0.007,1.001,0.061,-1.465,-0.824,-0.427,80.000,113833.000,1.000
192799.547,190343.359,207111.359,199828.719,193493.703,184646.516,193438.078,182899.500,-0.008,1.000,0.061,-1.526,-0.763,-0.397,80.000,113834.000,1.000
192805.797,190324.938,207086.063,199817.813,193485.297,184612.813,193414.844,182918.734,-0.005,1.004,0.061,-1.587,-0.732,-0.397,80.000,113835.000,1.000
192782.016,190297.484,207053.344,199788.031,193461.516,184581.250,193381.672,182891.453,-0.002,1.003,0.060,-1.770,-0.580,-0.244,80.000,113836.000,1.000
192756.172,190290.781,207051.734,199779.547,193447.922,184594.484,193382.656,182862.219,-0.005,1.002,0.063,-1.831,-0.580,-0.275,80.000,113837.000,1.000
192767.094,190318.672,207081.234,199807.438,193467.141,184644.375,193425.391,182880.906,-0.006,1.001,0.060,-1.953,-0.519,-0.183,80.000,113838.000,1.000
192787.922,190333.781,207093.031,199824.516,193481.719,184664.578,193444.172,182907.469,-0.008,0.999,0.063,-1.984,-0.397,-0.153,80.000,113839.000,1.000
192802.219,190320.734,207075.250,199822.375,193481.813,184643.297,193426.641,182931.875,-0.006,1.000,0.060,-2.106,-0.366,-0.183,80.000,113840.000,1.000
192768.875,190277.547,207031.344,199782.766,193447.031,184597.797,193388.469,182897.984,-0.007,1.000,0.061,-2.136,-0.458,-0.031,80.000,113841.000,1.000
192749.656,190273.703,207033.125,199777.391,193433.172,184591.078,193383.641,182867.859,-0.006,0.999,0.062,-2.167,-0.488,-0.031,80.000,113842.000,1.000
192762.609,190301.781,207065.500,199801.453,193450.516,184627.391,193415.734,182873.578,-0.008,0.999,0.062,-2.228,-0.488,-0.061,80.000,113843.000,1.000
192801.953,190338.969,207100.094,199834.703,193484.484,184664.844,193450.609,182910.234,-0.008,0.999,0.060,-2.289,-0.488,-0.092,80.000,113844.000,1.000
192805.359,190316.344,207073.984,199820.766,193475.813,184620.047,193416.984,182918.906,-0.009,0.998,0.064,-2.350,-0.336,-0.092,80.000,113845.000,1.000
192769.859,190275.141,207033.844,199784.188,193445.594,184572.578,193368.172,182880.906,-0.010,1.000,0.063,-2.441,-0.214,-0.061,80.000,113846.000,1.000
192753.766,190283.188,207048.516,199791.438,193451.859,184597.516,193388.641,182864.719,-0.008,1.001,0.063,-2.472,-0.153,-0.061,80.000,113847.000,1.000
192765.563,190314.922,207081.047,199817.094,193476.984,184640.078,193430.750,182881.266,-0.007,1.000,0.063,-2.472,-0.153,0.000,80.000,113848.000,1.000
192780.047,190326.719,207089.375,199830.781,193491.188,184652.859,193447.109,182909.703,-0.006,1.000,0.065,-2.411,-0.244,0.000,80.000,113849.000,1.000
192780.766,190308.391,207061.922,199815.484,193485.922,184629.891,193426.016,182921.141,-0.008,0.999,0.067,-2.411,-0.244,-0.122,80.000,113850.000,1.000
192747.141,190269.766,207021.781,199777.578,193455.781,184584.469,193387.031,182887.250,-0.008,1.000,0.068,-2.441,-0.244,-0.122,80.000,113851.000,1.000
192726.047,190265.391,207025.719,199776.141,193445.500,184582.234,193384.703,182862.844,-0.009,0.999,0.066,-2.594,-0.275,-0.061,80.000,113852.000,1.000
192745.719,190301.516,207065.234,199809.234,193472.594,184629.172,193424.766,182883.594,-0.008,0.999,0.066,-2.563,-0.244,-0.153,80.000,113853.000,1.000
192782.734,190336.828,207095.359,199836.500,193502.547,184661.719,193458.734,182919.625,-0.008,0.999,0.064,-2.563,-0.305,-0.214,80.000,113854.000,1.000
192787.563,190313.938,207066.844,199816.922,193489.047,184624.344,193427.000,182929.547,-0.007,0.998,0.064,-2.472,-0.183,-0.366,80.000,113855.000,1.000
192765.297,190279.156,207033.406,199783.828,193460.609,184579.016,193383.641,182900.578,-0.006,0.996,0.067,-2.502,-0.183,-0.336,80.000,113856.000,1.000
192750.188,190281.750,207043.234,199780.703,193454.891,184597.344,193395.891,182872.766,-0.007,0.999,0.066,-2.441,-0.214,-0.427,80.000,113857.000,1.000
192771.203,190319.391,207084.094,199812.625,193480.109,184648.125,193433.891,182886.625,-0.007,0.999,0.069,-2.472,-0.214,-0.427,80.000,113858.000,1.000
192815.906,190358.375,207120.219,199846.781,193512.297,184675.125,193460.531,182926.953,-0.007,1.000,0.066,-2.380,-0.183,-0.427,80.000,113859.000,1.000
192817.875,190334.672,207093.484,199825.766,193500.938,184638.656,193432.547,182937.500,-0.009,0.999,0.068,-2.350,-0.214,-0.427,80.000,113860.000,1.000
192777.641,190287.828,207047.172,199780.172,193458.656,184579.016,193372.813,182891.188,-0.006,0.999,0.069,-2.350,-0.183,-0.366,80.000,113861.000,1.000
192761.359,190292.297,207057.625,199780.703,193452.219,184591.266,193376.844,182859.188,-0.006,0.998,0.070,-2.319,-0.214,-0.488,80.000,113862.000,1.000
192790.422,190335.656,207107.078,199825.500,193489.406,184649.563,193432.906,182888.594,-0.007,0.999,0.063,-2.380,-0.183,-0.641,80.000,113863.000,1.000
192819.922,190361.500,207128.797,199849.281,193513.906,184682.734,193459.359,182922.844,-0.006,0.998,0.065,-2.350,-0.122,-0.610,80.000,113864.000,1.000
192825.297,190340.313,207100.813,199833.188,193503.797,184648.031,193433.250,182932.406,-0.007,1.000,0.067,-2.380,-0.183,-0.549,80.000,113865.000,1.000
192788.359,190291.500,207054.953,199793.313,193465.438,184581.703,193389.000,182894.766,-0.008,1.000,0.068,-2.228,-0.183,-0.671,80.000,113866.000,1.000
192757.344,190276.297,207048.781,199784.469,193447.297,184583.125,193387.219,182862.938,-0.008,0.999,0.067,-2.197,-0.153,-0.671,80.000,113867.000,1.000
192767.719,190302.672,207078.281,199809.938,193463.391,184620.406,193416.266,182872.500,-0.008,1.000,0.069,-2.167,-0.183,-0.641,80.000,113868.000,1.000
192805.797,190337.359,207107.516,199841.063,193490.922,184647.594,193437.734,182908.172,-0.009,0.999,0.070,-2.167,-0.183,-0.519,80.000,113869.000,1.000
192805.984,190311.609,207075.875,199823.359,193478.406,184611.734,193411.797,182919.000,-0.011,0.999,0.068,-2.167,-0.244,-0.580,80.000,113870.000,1.000
192774.328,190269.953,207034.828,199785.984,193446.672,184567.844,193372.641,182884.031,-0.011,0.999,0.065,-2.228,-0.336,-0.641,80.000,113871.000,1.000
192756.266,190273.969,207040.641,199785.094,193440.766,184582.328,193380.234,182856.047,-0.011,0.999,0.066,-2.289,-0.366,-0.641,80.000,113872.000,1.000
192773.172,190313.406,207077.203,199816.016,193467.672,184633.281,193420.922,182874.297,-0.010,1.001,0.066,-2.258,-0.366,-0.580,80.000,113873.000,1.000
192801.156,190341.469,207100.016,199837.922,193495.391,184662.438,193452.922,182910.688,-0.010,1.001,0.064,-2.197,-0.366,-0.580,80.000,113874.000,1.000
192802.844,190323.500,207073.641,199819.516,193490.750,184636.063,193437.906,182925.172,-0.010,1.002,0.066,-2.289,-0.397,-0.610,80.000,113875.000,1.000
192763.594,190278.703,207027.328,199777.219,193452.219,184583.031,193384.891,182885.641,-0.010,1.002,0.067,-2.319,-0.397,-0.519,80.000,113876.000,1.000
192753.047,190289.172,207041.359,199784.109,193452.750,184612.906,193395.703,182864.375,-0.011,1.002,0.066,-2.319,-0.519,-0.549,80.000,113877.000,1.000
192760.734,190313.578,207068.188,199806.359,193466.703,184643.391,193422.625,182869.734,-0.012,1.001,0.070,-2.289,-0.671,-0.519,80.000,113878.000,1.000
192782.828,190337.266,207086.859,199824.516,193487.969,184664.844,193446.125,182903.797,-0.010,1.000,0.066,-2.228,-0.702,-0.427,80.000,113879.000,1.000
192777.094,190309.563,207053.703,199800.016,193475.453,184630.781,193423.156,182914.531,-0.010,1.001,0.067,-2.350,-0.671,-0.580,80.000,113880.000,1.000
192750.641,190275.844,207019.984,199768.719,193451.313,184591.266,193384.531,182888.594,-0.009,1.000,0.068,-2.380,-0.702,-0.458,80.000,113881.000,1.000
192738.563,190285.859,207036.266,199773.016,193454.719,184612.094,193397.500,182873.125,-0.012,0.999,0.071,-2.411,-0.732,-0.458,80.000,113882.000,1.000
192749.734,190310.266,207067.734,199798.047,193470.266,184642.766,193419.672,182878.141,-0.010,0.998,0.070,-2.472,-0.916,-0.397,80.000,113883.000,1.000
192782.203,190336.281,207094.203,199822.094,193495.125,184666.641,193447.109,182911.578,-0.010,0.999,0.069,-2.502,-0.854,-0.336,80.000,113884.000,1.000
192789.531,190317.422,207072.203,199804.938,193490.391,184634.359,193425.203,182926.953,-0.010,0.999,0.070,-2.441,-0.916,-0.214,80.000,113885.000,1.000
192764.672,190279.156,207036.531,199773.016,193458.828,184583.484,193380.859,182895.219,-0.009,0.999,0.068,-2.380,-0.854,-0.183,80.000,113886.000,1.000
192760.828,190294.359,207059.500,199789.016,193466.969,184608.781,193400.625,182882.344,-0.007,1.000,0.068,-2.350,-0.793,-0.031,80.000,113887.000,1.000
192771.906,190322.781,207092.859,199815.484,193486.000,184647.766,193432.547,182893.063,-0.008,1.000,0.069,-2.411,-0.854,-0.092,80.000,113888.000,1.000
192799.266,190349.250,207115.031,199835.953,193508.719,184670.922,193455.516,182921.234,-0.004,1.000,0.073,-2.380,-0.916,-0.092,80.000,113889.000,1.000
192809.375,190334.859,207097.141,199828.094,193507.109,184642.047,193438.438,182941.531,-0.007,0.998,0.072,-2.319,-0.885,-0.092,80.000,113890.000,1.000
192770.578,190285.953,207051.453,199785.719,193470.813,184593.766,193391.234,182902.281,-0.009,0.997,0.070,-2.228,-0.824,-0.214,80.000,113891.000,1.000
192744.109,190276.922,207048.781,199778.109,193455.609,184599.125,193386.672,182865.891,-0.007,0.998,0.069,-2.197,-0.793,-0.061,80.000,113892.000,1.000
192758.500,190304.453,207080.781,199808.594,193474.297,184642.047,193419.125,182877.594,-0.005,0.997,0.068,-2.228,-0.671,-0.122,80.000,113893.000,1.000
192786.047,190325.469,207099.297,199827.641,193494.500,184663.688,193443.266,182906.656,-0.005,0.997,0.068,-2.258,-0.793,-0.092,80.000,113894.000,1.000
192800.172,190314.828,207079.172,199815.391,193494.047,184639.906,193432.281,182923.469,-0.004,0.999,0.070,-2.228,-0.763,-0.061,80.000,113895.000,1.000
192771.563,190280.953,207040.016,199779.813,193466.422,184604.047,193393.656,182892.984,-0.006,0.998,0.068,-2.228,-0.671,-0.153,80.000,113896.000,1.000
192749.391,190282.109,207042.969,199777.047,193460.438,184613.703,193403.484,182869.547,-0.005,0.997,0.069,-2.136,-0.610,-0.092,80.000,113897.000,1.000
192762.438,190315.094,207074.703,199803.766,193480.375,184650.359,193437.734,182880.734,-0.004,0.999,0.070,-2.167,-0.519,-0.092,80.000,113898.000,1.000
192786.219,190339.594,207092.141,199818.703,193499.688,184677.547,193455.078,182903.344,-0.003,1.000,0.066,-2.136,-0.427,-0.092,80.000,113899.000,1.000
192792.563,190318.938,207066.922,199803.859,193491.281,184642.578,193431.641,182915.156,-0.005,1.002,0.065,-2.167,-0.427,0.000,80.000,113900.000,1.000
192764.219,190278.797,207027.406,199769.703,193460.969,184589.031,193394.188,182891.641,-0.008,1.000,0.066,-2.136,-0.488,-0.061,80.000,113901.000,1.000
192737.766,190271.734,207022.938,199756.391,193442.109,184585.625,193379.609,182852.391,-0.008,1.001,0.066,-2.167,-0.305,-0.092,80.000,113902.000,1.000
192751.266,190301.594,207056.281,199783.297,193462.766,184635.250,193417.797,182866.875,-0.009,1.000,0.070,-2.106,-0.336,-0.092,80.000,113903.000,1.000
192788.000,190332.359,207087.844,199816.297,193492.891,184663.688,193452.391,182914.703,-0.008,0.998,0.070,-2.075,-0.305,-0.092,80.000,113904.000,1.000
192804.641,190321.172,207073.188,199809.234,193488.875,184625.328,193425.391,182934.828,-0.006,1.000,0.072,-2.045,-0.214,-0.214,80.000,113905.000,1.000
192780.313,190286.938,207041.172,199779.188,193463.563,184585.094,193386.500,182906.484,-0.006,1.000,0.071,-2.075,-0.183,-0.092,80.000,113906.000,1.000
192753.500,190279.688,207041.266,199771.234,193451.578,184591.359,193388.906,182874.563,-0.004,0.999,0.072,-2.106,-0.244,-0.122,80.000,113907.000,1.000
192765.391,190307.500,207072.922,199794.297,193469.203,184633.281,193424.938,182880.906,-0.005,1.001,0.069,-2.045,-0.183,-0.183,80.000,113908.000,1.000
192793.016,190334.406,207093.656,199817.813,193491.469,184659.922,193445.234,182908.266,-0.004,0.998,0.068,-2.045,-0.061,-0.122,80.000,113909.000,1.000
192798.641,190318.313,207068.719,199801.188,193484.219,184626.313,193418.859,182919.891,-0.003,0.997,0.068,-2.045,-0.092,-0.122,80.000,113910.000,1.000
192767.625,190278.891,207028.391,199764.344,193451.047,184577.672,193376.031,182883.406,-0.001,0.999,0.071,-2.014,0.031,-0.092,80.000,113911.000,1.000
192742.047,190275.500,207029.906,199758.438,193438.891,184582.859,193373.625,182848.453,-0.003,0.997,0.068,-2.014,0.092,-0.153,80.000,113912.000,1.000
192760.109,190312.328,207070.063,199794.563,193465.000,184631.047,193413.594,182864.188,-0.004,0.996,0.063,-1.984,0.153,-0.122,80.000,113913.000,1.000
192797.313,190345.313,207100.188,199827.641,193495.125,184663.859,193444.797,182900.578,-0.005,0.995,0.070,-1.801,0.183,-0.092,80.000,113914.000,1.000
192797.391,190317.609,207068.891,199806.281,193481.719,184625.063,193414.391,182909.969,-0.008,0.996,0.069,-1.709,0.153,-0.244,80.000,113915.000,1.000
192755.734,190265.484,207018.375,199759.781,193440.953,184576.328,193366.469,182865.797,-0.008,0.995,0.067,-1.617,0.214,-0.244,80.000,113916.000,1.000
192747.500,190276.391,207034.203,199769.703,193444.344,184605.922,193386.047,182847.031,-0.010,0.994,0.066,-1.617,0.244,-0.183,80.000,113917.000,1.000
192774.688,190316.891,207080.156,199811.906,193476.078,184653.219,193428.078,182871.797,-0.009,0.997,0.067,-1.526,0.153,-0.305,80.000,113918.000,1.000
192787.656,190328.781,207088.563,199818.703,193486.453,184666.359,193438.984,182888.516,-0.009,1.000,0.066,-1.495,0.183,-0.366,80.000,113919.000,1.000
192789.266,190312.500,207063.359,199800.281,193482.156,184642.500,193424.938,182900.578,-0.006,1.000,0.066,-1.465,0.092,-0.275,80.000,113920.000,1.000
192761.000,190280.594,207029.828,199770.156,193460.078,184602.000,193390.078,182878.672,-0.005,1.001,0.065,-1.526,-0.031,-0.397,80.000,113921.000,1.000
192751.438,190288.813,207044.484,199779.719,193462.578,184616.203,193399.906,182863.656,-0.007,1.003,0.066,-1.465,0.031,-0.366,80.000,113922.000,1.000
192778.438,190331.188,207092.594,199822.016,193498.344,184665.656,193448.453,182895.031,-0.008,1.001,0.065,-1.495,0.031,-0.366,80.000,113923.000,1.000
192789.172,190337.453,207096.609,199826.125,193505.141,184666.016,193455.703,182916.766,-0.008,1.002,0.064,-1.556,0.000,-0.427,80.000,113924.000,1.000
192784.609,190309.375,207061.391,199801.094,193491.813,184633.828,193433.703,182929.813,-0.009,1.000,0.065,-1.587,0.031,-0.458,80.000,113925.000,1.000
192761.625,190283.359,207031.344,199777.125,193475.281,184609.328,193413.766,182913.984,-0.012,1.003,0.065,-1.678,0.031,-0.610,80.000,113926.000,1.000
192749.297,190292.391,207045.203,199783.563,193476.797,184616.563,193420.375,182897.891,-0.012,1.003,0.069,-1.709,0.000,-0.702,80.000,113927.000,1.000
192775.484,190331.281,207088.203,199820.844,193504.250,184659.922,193457.938,182918.453,-0.011,1.002,0.067,-1.770,-0.061,-0.732,80.000,113928.000,1.000
192783.625,190331.641,207085.875,199818.609,193498.703,184653.406,193446.484,182921.594,-0.013,1.001,0.068,-1.862,-0.305,-0.916,80.000,113929.000,1.000
192786.844,190308.844,207056.375,199798.047,193485.656,184612.906,193419.313,182931.953,-0.011,1.001,0.068,-1.923,-0.275,-0.977,80.000,113930.000,1.000
192760.109,190273.344,207019.359,199764.969,193456.063,184571.234,193385.156,182902.719,-0.011,1.003,0.068,-2.075,-0.458,-1.099,80.000,113931.000,1.000
192745.094,190276.125,207030.984,199768.547,193448.281,184582.328,193387.578,182873.938,-0.011,1.002,0.069,-2.167,-0.519,-1.068,80.000,113932.000,1.000
192756.891,190304.188,207066.219,199795.641,193465.797,184619.250,193418.859,182884.031,-0.012,1.001,0.070,-2.136,-0.519,-1.068,80.000,113933.000,1.000
192786.047,190332.625,207090.797,199816.922,193486.641,184643.484,193437.188,182907.109,-0.011,1.003,0.067,-2.197,-0.732,-1.068,80.000,113934.000,1.000
192789.891,190313.219,207065.141,199798.047,193474.828,184609.859,193406.797,182913.094,-0.014,1.001,0.070,-2.319,-0.885,-0.885,80.000,113935.000,1.000
192764.672,190279.344,207030.625,199766.938,193449.969,184576.250,193376.219,182883.063,-0.014,1.001,0.069,-2.319,-0.946,-0.824,80.000,113936.000,1.000
192750.641,190284.969,207040.469,199770.328,193446.938,184593.500,193383.094,182854.797,-0.013,1.001,0.069,-2.350,-0.946,-0.885,80.000,113937.000,1.000
192765.203,190317.422,207074.172,199801.000,193468.578,184637.406,193415.109,182864.016,-0.012,1.002,0.071,-2.441,-1.038,-0.854,80.000,113938.000,1.000
192806.328,190357.125,207107.609,199836.672,193502.906,184674.688,193448.719,182902.188,-0.009,1.000,0.070,-2.411,-1.007,-0.763,80.000,113939.000,1.000
192813.578,190337.813,207083.016,199821.391,193493.344,184640.891,193423.063,182908.719,-0.010,0.999,0.073,-2.411,-1.099,-0.580,80.000,113940.000,1.000
192767.984,190278.703,207027.328,199769.078,193446.844,184583.031,193373.984,182862.047,-0.010,0.997,0.072,-2.411,-1.129,-0.488,80.000,113941.000,1.000
192751.703,190281.656,207037.609,199768.375,193446.125,184607.094,193386.766,182838.438,-0.009,0.997,0.073,-2.533,-1.068,-0.397,80.000,113942.000,1.000
192781.484,190329.047,207089.813,199814.234,193485.922,184669.578,193437.281,182870.188,-0.010,0.997,0.071,-2.472,-1.190,-0.336,80.000,113943.000,1.000
192799.813,190348.719,207105.813,199828.891,193506.125,184685.141,193461.688,182909.156,-0.012,0.997,0.071,-2.472,-1.251,-0.305,80.000,113944.000,1.000
192794.625,190327.172,207073.984,199805.922,193492.891,184634.891,193421.984,182921.328,-0.012,0.995,0.071,-2.441,-1.221,-0.336,80.000,113945.000,1.000
192763.594,190289.344,207035.375,199774.359,193467.766,184594.297,193394.188,182902.547,-0.011,0.994,0.072,-2.319,-1.251,-0.275,80.000,113946.000,1.000
192745.984,190289.703,207043.859,199779.188,193467.672,184611.922,193404.922,182888.422,-0.011,0.994,0.070,-2.258,-1.251,-0.183,80.000,113947.000,1.000
192764.219,190323.234,207082.750,199815.938,193495.313,184652.328,193441.297,182911.578,-0.012,0.994,0.067,-2.258,-1.282,-0.122,80.000,113948.000,1.000
192787.656,190343.078,207099.203,199831.047,193512.563,184669.234,193466.250,182939.563,-0.011,0.993,0.067,-2.167,-1.251,-0.183,80.000,113949.000,1.000
192785.688,190317.328,207067.109,199806.547,193495.125,184624.875,193432.719,182944.656,-0.008,0.995,0.068,-2.136,-1.312,-0.214,80.000,113950.000,1.000
192757.703,190278.359,207030.266,199775.875,193465.359,184580.797,193391.859,182916.313,-0.011,0.995,0.072,-2.106,-1.312,-0.153,80.000,113951.000,1.000
192739.906,190280.406,207036.438,199773.469,193457.391,184596.266,193397.047,182885.203,-0.009,0.998,0.069,-2.075,-1.373,-0.214,80.000,113952.000,1.000
192756.531,190313.125,207070.422,199798.766,193476.703,184637.578,193432.625,182894.313,-0.008,0.997,0.070,-2.045,-1.221,-0.275,80.000,113953.000,1.000
192784.703,190334.328,207091.250,199818.172,193493.609,184655.453,193449.969,182916.047,-0.005,0.997,0.072,-1.923,-1.160,-0.244,80.000,113954.000,1.000
192798.109,190320.281,207073.359,199807.891,193489.578,184626.219,193428.078,182933.844,-0.005,0.998,0.069,-1.862,-1.099,-0.244,80.000,113955.000,1.000
192774.234,190286.938,207039.656,199778.203,193466.250,184592.609,193399.016,182908.172,-0.004,0.998,0.072,-1.831,-1.129,-0.214,80.000,113956.000,1.000
192749.031,190281.844,207037.609,199771.406,193452.563,184597.344,193391.234,182868.219,-0.005,0.996,0.068,-1.740,-0.977,-0.183,80.000,113957.000,1.000
192760.828,190311.078,207067.641,199794.563,193472.328,184643.750,193427.172,182875.813,-0.006,0.996,0.069,-1.770,-0.854,-0.244,80.000,113958.000,1.000
192791.313,190341.109,207092.047,199819.328,193499.594,184677.359,193455.156,182908.891,-0.002,0.997,0.068,-1.678,-0.763,-0.183,80.000,113959.000,1.000
192795.156,190321.984,207068.531,199806.984,193492.172,184637.672,193426.375,182921.500,-0.001,0.998,0.068,-1.709,-0.671,-0.153,80.000,113960.000,1.000
192764.406,190282.734,207030.719,199772.031,193463.125,184590.016,193387.844,182890.297,-0.002,1.000,0.069,-1.587,-0.549,-0.122,80.000,113961.000,1.000
192731.766,190272.281,207024.906,199757.547,193444.078,184590.188,193378.813,182848.547,-0.002,1.002,0.070,-1.678,-0.458,-0.153,80.000,113962.000,1.000
192751.891,190312.422,207066.219,199790.266,193468.656,184638.031,193415.375,182859.453,-0.004,1.001,0.067,-1.709,-0.305,-0.244,80.000,113963.000,1.000
192790.422,190350.141,207098.938,199822.547,193500.844,184680.672,193451.047,182898.516,-0.006,1.000,0.070,-1.648,-0.275,-0.244,80.000,113964.000,1.000
192794.891,190328.688,207072.297,199812.625,193492.719,184644.906,193431.016,182918.109,-0.006,1.000,0.069,-1.648,-0.183,-0.305,80.000,113965.000,1.000
192760.203,190283.625,207024.109,199774.625,193455.344,184586.531,193379.172,182885.016,-0.004,0.999,0.070,-1.617,0.031,-0.305,80.000,113966.000,1.000
192745.266,190284.875,207029.281,199771.938,193450.875,184602.984,193387.578,182865.000,-0.005,1.001,0.071,-1.617,0.122,-0.397,80.000,113967.000,1.000
192749.031,190302.313,207052.438,199789.203,193463.125,184630.875,193411.984,182873.938,-0.006,0.999,0.071,-1.648,0.275,-0.458,80.000,113968.000,1.000
192774.328,190329.047,207076.578,199812.891,193489.500,184661.000,193444.609,182909.969,-0.008,1.000,0.071,-1.617,0.366,-0.458,80.000,113969.000,1.000
192784.344,190316.000,207060.844,199805.203,193489.219,184636.234,193428.875,182932.859,-0.007,1.000,0.067,-1.617,0.244,-0.519,80.000,113970.000,1.000
192751.531,190271.828,207019.453,199769.266,193455.078,184580.719,193382.469,182901.109,-0.009,1.001,0.068,-1.617,0.244,-0.519,80.000,113971.000,1.000
192734.453,190269.234,207024.188,199762.828,193443.813,184580.797,193377.828,182870.813,-0.006,1.000,0.069,-1.587,0.336,-0.549,80.000,113972.000,1.000
192751.078,190303.125,207060.578,199792.328,193467.859,184626.844,193415.641,182882.516,-0.006,1.000,0.069,-1.587,0.397,-0.519,80.000,113973.000,1.000
192782.828,190334.766,207086.953,199819.953,193496.922,184658.313,193450.875,182919.172,-0.010,1.001,0.071,-1.526,0.275,-0.580,80.000,113974.000,1.000
192787.922,190316.438,207059.688,199801.094,193488.516,184624.609,193428.781,182930.531,-0.010,1.001,0.070,-1.617,0.366,-0.427,80.000,113975.000,1.000
192763.063,190280.500,207023.031,199767.734,193460.531,184587.953,193391.422,182897.094,-0.010,1.002,0.068,-1.556,0.244,-0.519,80.000,113976.000,1.000
192753.672,190290.781,207038.938,199775.438,193462.219,184614.688,193404.375,182874.203,-0.010,1.002,0.069,-1.617,0.275,-0.519,80.000,113977.000,1.000
192761.094,190311.969,207065.938,199796.359,193472.328,184637.938,193420.922,182873.219,-0.011,1.001,0.068,-1.526,0.244,-0.488,80.000,113978.000,1.000
192788.641,190335.844,207089.641,199816.828,193494.766,184662.797,193448.453,182904.250,-0.012,1.000,0.069,-1.678,0.153,-0.488,80.000,113979.000,1.000
192789.797,190310.625,207061.469,199798.594,193480.828,184624.172,193414.484,182910.328,-0.011,1.004,0.066,-1.770,-0.031,-0.458,80.000,113980.000,1.000
192762.891,190270.844,207024.281,199769.531,193451.578,184576.953,193376.391,182885.203,-0.010,1.000,0.069,-1.709,-0.031,-0.336,80.000,113981.000,1.000
192752.781,190280.141,207039.219,199780.703,193455.156,184603.516,193400.266,182871.250,-0.010,0.999,0.068,-1.648,-0.122,-0.336,80.000,113982.000,1.000
192758.141,190303.563,207064.250,199799.219,193464.813,184635.969,193420.656,182868.031,-0.009,0.997,0.066,-1.617,-0.244,-0.427,80.000,113983.000,1.000
192774.328,190319.844,207073.984,199808.156,193473.219,184649.203,193424.234,182883.141,-0.011,0.996,0.066,-1.617,-0.244,-0.366,80.000,113984.000,1.000
192780.938,190304.641,207049.938,199794.750,193466.703,184618.438,193402.859,182901.203,-0.011,0.996,0.069,-1.556,-0.275,-0.305,80.000,113985.000,1.000
192748.938,190263.953,207006.672,199756.031,193434.688,184576.328,193370.141,182871.797,-0.011,0.994,0.070,-1.404,-0.336,-0.275,80.000,113986.000,1.000
192736.516,190276.391,207021.422,199762.109,193439.688,184604.500,193388.547,182861.594,-0.012,0.995,0.070,-1.343,-0.397,-0.183,80.000,113987.000,1.000
192755.828,190313.219,207061.469,199796.078,193464.813,184644.469,193425.563,182880.016,-0.011,0.995,0.065,-1.221,-0.458,-0.305,80.000,113988.000,1.000
192781.484,190333.969,207080.250,199814.234,193480.203,184657.422,193434.422,182897.453,-0.010,0.994,0.066,-1.190,-0.458,-0.214,80.000,113989.000,1.000
192784.516,190313.047,207053.781,199796.266,193472.594,184631.047,193413.047,182909.344,-0.009,0.997,0.068,-1.160,-0.427,-0.183,80.000,113990.000,1.000
192751.703,190271.734,207012.922,199760.234,193446.938,184596.891,193383.188,182886.813,-0.011,0.997,0.068,-1.099,-0.549,-0.275,80.000,113991.000,1.000
192734.000,190271.922,207019.453,199759.156,193443.453,184602.531,193386.047,182864.016,-0.011,0.999,0.068,-1.038,-0.641,-0.244,80.000,113992.000,1.000
192757.703,190310.984,207063.078,199798.234,193475.906,184649.922,193425.391,182887.609,-0.010,0.999,0.067,-1.129,-0.610,-0.336,80.000,113993.000,1.000
192794.891,190348.188,207095.531,199830.141,193510.328,184687.375,193461.781,182928.297,-0.013,0.999,0.065,-1.129,-0.732,-0.336,80.000,113994.000,1.000
192783.453,190311.703,207054.953,199798.672,193486.281,184628.016,193421.906,182925.969,-0.010,0.999,0.062,-1.129,-0.610,-0.336,80.000,113995.000,1.000
192751.438,190267.625,207013.375,199760.500,193454.000,184577.406,193378.094,182892.266,-0.010,1.000,0.066,-1.129,-0.702,-0.427,80.000,113996.000,1.000
192738.125,190273.344,207024.734,199764.797,193454.172,184604.141,193389.813,182872.063,-0.010,1.002,0.067,-1.099,-0.824,-0.549,80.000,113997.000,1.000
192749.109,190299.984,207056.641,199792.063,193472.953,184644.813,193425.922,182882.969,-0.009,1.001,0.067,-1.099,-0.824,-0.580,80.000,113998.000,1.000
192783.266,190328.516,207084.094,199823.078,193496.297,184656.891,193452.656,182918.547,-0.009,1.003,0.066,-1.312,-0.763,-0.519,80.000,113999.000,1.000
192784.156,190305.984,207055.125,199804.750,193480.547,184613.969,193412.344,182922.750,-0.006,1.004,0.065,-1.373,-0.824,-0.610,80.000,114000.000,1.000
192747.688,190263.781,207010.516,199764.797,193445.781,184569.453,193370.766,182888.781,-0.004,1.000,0.065,-1.434,-0.732,-0.488,80.000,114001.000,1.000
192734.281,190268.875,207021.516,199771.313,193442.203,184585.453,193378.625,182867.766,-0.005,1.000,0.063,-1.495,-0.916,-0.519,80.000,114002.000,1.000
192760.297,190311.344,207068.531,199808.875,193469.109,184638.031,193418.781,182882.078,-0.006,1.000,0.064,-1.587,-0.702,-0.458,80.000,114003.000,1.000
192799.719,190346.391,207100.906,199832.828,193492.172,184662.078,193440.500,182907.906,-0.005,1.001,0.065,-1.648,-0.763,-0.458,80.000,114004.000,1.000
192788.547,190312.500,207059.594,199800.375,193465.359,184612.984,193401.969,182903.797,-0.004,1.001,0.064,-1.617,-0.702,-0.336,80.000,114005.000,1.000
192755.906,190272.094,207017.484,199765.063,193434.516,184571.688,193358.422,182870.000,-0.006,1.001,0.065,-1.709,-0.732,-0.458,80.000,114006.000,1.000
192740.984,190278.703,207028.656,199767.469,193433.891,184588.672,193363.516,182847.922,-0.007,1.000,0.067,-1.770,-0.610,-0.397,80.000,114007.000,1.000
192757.250,190315.906,207068.625,199800.109,193464.109,184644.469,193412.781,182867.859,-0.008,1.000,0.065,-1.801,-0.549,-0.397,80.000,114008.000,1.000
192778.703,190337.719,207088.297,199820.313,193488.250,184666.906,193439.969,182901.297,-0.007,0.999,0.063,-1.892,-0.580,-0.427,80.000,114009.000,1.000
192779.609,190313.766,207059.688,199802.516,193480.375,184624.078,193413.406,182916.500,-0.008,1.001,0.066,-1.984,-0.549,-0.397,80.000,114010.000,1.000
192746.609,190270.938,207016.688,199762.922,193448.813,184577.047,193368.891,182886.359,-0.008,1.002,0.065,-2.045,-0.427,-0.336,80.000,114011.000,1.000
192726.938,190272.281,207021.781,199758.531,193444.250,184595.563,193382.203,182863.922,-0.008,1.002,0.061,-2.106,-0.397,-0.366,80.000,114012.000,1.000
192743.391,190304.453,207057.094,199785.359,193468.031,184641.594,193422.438,182878.672,-0.008,1.001,0.067,-2.136,-0.366,-0.366,80.000,114013.000,1.000
192783.891,190341.109,207090.531,199818.172,193500.938,184670.844,193454.719,182918.547,-0.008,1.000,0.071,-2.228,-0.336,-0.366,80.000,114014.000,1.000
192787.203,190320.469,207064.328,199803.953,193493.078,184641.781,193431.297,182930.703,-0.007,1.000,0.068,-2.197,-0.336,-0.366,80.000,114015.000,1.000
192747.688,190272.813,207016.406,199761.031,193456.594,184594.844,193387.219,182895.656,-0.006,0.999,0.065,-2.228,-0.336,-0.275,80.000,114016.000,1.000
192735.609,190276.922,207026.688,199768.188,193455.516,184610.938,193396.953,182875.813,-0.008,1.000,0.064,-2.258,-0.336,-0.153,80.000,114017.000,1.000
192756.172,190315.375,207067.281,199805.297,193482.609,184658.141,193437.813,182892.891,-0.008,0.999,0.069,-2.228,-0.336,-0.122,80.000,114018.000,1.000
192770.297,190328.781,207076.219,199815.219,193491.641,184669.406,193447.203,182910.953,-0.009,1.001,0.072,-2.228,-0.153,-0.214,80.000,114019.000,1.000
192771.563,190305.984,207047.172,199795.453,193477.875,184633.906,193420.656,182923.016,-0.009,0.999,0.073,-2.258,-0.122,-0.275,80.000,114020.000,1.000
192754.563,190273.078,207016.594,199770.781,193450.953,184584.203,193377.281,182899.063,-0.011,0.999,0.071,-2.258,-0.153,-0.275,80.000,114021.000,1.000
192739.109,190273.078,207024.188,199773.281,193444.344,184596.266,193382.203,182869.828,-0.009,1.000,0.070,-2.258,-0.214,-0.336,80.000,114022.000,1.000
192744.109,190293.734,207048.328,199788.750,193453.734,184627.828,193409.828,182865.703,-0.009,0.998,0.068,-2.228,-0.244,-0.336,80.000,114023.000,1.000
192767.891,190314.297,207066.391,199802.703,193469.563,184644.016,193428.516,182888.953,-0.008,1.001,0.069,-2.258,-0.214,-0.214,80.000,114024.000,1.000
192776.203,190300.531,207044.938,199787.766,193464.547,184620.328,193412.156,182906.656,-0.009,1.001,0.070,-2.258,-0.214,-0.214,80.000,114025.000,1.000
192751.969,190267.797,207008.719,199752.906,193435.938,184581.156,193371.297,182877.250,-0.008,1.000,0.072,-2.258,-0.244,-0.305,80.000,114026.000,1.000
192732.578,190267.453,207012.844,199747.625,193425.563,184596.625,193371.484,182845.594,-0.008,0.998,0.072,-2.197,-0.153,-0.397,80.000,114027.000,1.000
192758.688,190308.391,207057.547,199784.641,193451.766,184640.266,193411.078,182861.781,-0.007,0.998,0.070,-2.197,-0.153,-0.366,80.000,114028.000,1.000
192786.219,190330.922,207079.359,199803.141,193466.422,184649.375,193420.297,182880.641,-0.008,0.997,0.070,-2.136,-0.122,-0.458,80.000,114029.000,1.000
192796.594,190318.500,207060.844,199792.859,193462.141,184615.219,193393.922,182894.313,-0.008,0.998,0.069,-2.014,-0.153,-0.488,80.000,114030.000,1.000
192769.766,190282.016,207023.391,199761.844,193434.859,184572.578,193355.203,182867.500,-0.008,0.998,0.066,-1.862,-0.031,-0.366,80.000,114031.000,1.000
192757.609,190287.656,207034.734,199765.781,193436.391,184594.750,193368.438,182847.469,-0.008,0.996,0.065,-1.862,-0.153,-0.488,80.000,114032.000,1.000
192772.266,190317.609,207069.875,199794.031,193460.266,184639.641,193410.188,182862.484,-0.009,0.995,0.065,-1.801,-0.183,-0.488,80.000,114033.000,1.000
192791.859,190337.547,207085.875,199813.156,193478.313,184657.969,193427.797,182889.578,-0.008,0.996,0.068,-1.740,-0.183,-0.580,80.000,114034.000,1.000
192802.406,190324.672,207066.750,199806.453,193478.406,184631.406,193405.906,182913.188,-0.009,0.999,0.068,-1.709,-0.031,-0.519,80.000,114035.000,1.000
192777.281,190289.172,207030.891,199780.078,193456.234,184590.906,193372.641,182892.266,-0.007,1.001,0.071,-1.740,-0.031,-0.519,80.000,114036.000,1.000
192748.125,190278.078,207024.906,199764.797,193441.844,184593.500,193375.594,182855.703,-0.010,1.002,0.067,-1.770,-0.031,-0.610,80.000,114037.000,1.000
192768.156,190311.344,207063.984,199799.484,193470.359,184641.063,193421.984,182877.594,-0.010,1.003,0.069,-1.892,-0.122,-0.610,80.000,114038.000,1.000
192793.906,190334.047,207081.594,199821.828,193490.828,184666.641,193447.656,182909.781,-0.010,1.002,0.070,-1.740,-0.214,-0.549,80.000,114039.000,1.000
192795.703,190310.000,207049.672,199799.922,193475.281,184621.031,193414.391,182917.828,-0.009,1.001,0.069,-1.709,-0.244,-0.610,80.000,114040.000,1.000
192775.219,190272.719,207015.875,199770.688,193449.797,184577.859,193382.031,182894.141,-0.010,1.002,0.070,-1.740,-0.122,-0.732,80.000,114041.000,1.000
192777.906,190289.438,207039.484,199784.734,193456.688,184605.563,193395.609,182878.672,-0.008,1.002,0.068,-1.801,-0.153,-0.610,80.000,114042.000,1.000
192805.078,190332.984,207084.719,199818.609,193481.531,184653.313,193431.375,182893.156,-0.010,1.002,0.068,-1.923,-0.153,-0.549,80.000,114043.000,1.000
192825.109,190349.438,207097.328,199827.906,193488.781,184661.266,193435.766,182903.797,-0.007,1.001,0.066,-1.953,-0.305,-0.458,80.000,114044.000,1.000
192830.828,190323.063,207067.734,199806.906,193476.000,184620.594,193408.938,182912.922,-0.008,1.001,0.068,-1.953,-0.275,-0.336,80.000,114045.000,1.000
192804.453,190283.984,207029.109,199769.891,193449.344,184581.438,193374.875,182889.219,-0.010,1.000,0.070,-1.923,-0.275,-0.275,80.000,114046.000,1.000
192789.172,190287.469,207039.219,199770.609,193445.500,184594.297,193380.234,182866.063,-0.008,1.001,0.072,-1.892,-0.244,-0.275,80.000,114047.000,1.000
192809.641,190326.094,207079.266,199800.828,193472.422,184645.625,193422.266,182876.625,-0.010,1.000,0.069,-1.831,-0.244,-0.305,80.000,114048.000,1.000
192845.766,190360.344,207108.953,199832.391,193503.172,184673.078,193451.859,182916.047,-0.009,0.999,0.069,-1.831,-0.275,-0.397,80.000,114049.000,1.000
192855.234,190347.641,207088.828,199826.219,193502.188,184643.125,193426.375,182939.469,-0.008,1.000,0.071,-1.923,-0.305,-0.305,80.000,114050.000,1.000
192815.547,190301.688,207039.125,199780.531,193466.063,184597.344,193380.063,182901.563,-0.010,0.998,0.068,-1.923,-0.244,-0.366,80.000,114051.000,1.000
192795.250,190303.391,207041.891,199776.063,193458.203,184610.125,193384.797,182866.516,-0.012,0.996,0.068,-1.831,-0.336,-0.366,80.000,114052.000,1.000
192812.688,190339.953,207082.313,199813.078,193487.531,184658.313,193432.188,182886.359,-0.010,0.997,0.067,-1.892,-0.366,-0.366,80.000,114053.000,1.000
192842.281,190367.047,207107.609,199838.375,193511.672,184686.484,193456.406,182915.234,-0.009,0.997,0.068,-1.831,-0.397,-0.244,80.000,114054.000,1.000
192834.859,190333.875,207068.000,199811.813,193485.828,184637.313,193407.156,182913.547,-0.007,0.998,0.068,-1.740,-0.519,-0.214,80.000,114055.000,1.000
192815.813,190304.906,207038.141,199788.938,193465.438,184598.063,193379.250,182897.000,-0.007,0.997,0.069,-1.740,-0.397,-0.275,80.000,114056.000,1.000
192800.438,190306.344,207050.750,199795.016,193466.781,184616.922,193402.328,182880.547,-0.006,0.998,0.064,-1.831,-0.519,-0.214,80.000,114057.000,1.000
192801.500,190320.906,207071.047,199809.672,193473.047,184644.813,193414.578,182877.875,-0.008,0.999,0.067,-1.740,-0.366,-0.214,80.000,114058.000,1.000
192829.313,190348.000,207095.188,199831.219,193495.391,184667.797,193435.047,182911.484,-0.007,0.999,0.069,-1.678,-0.275,-0.244,80.000,114059.000,1.000
192827.797,190325.203,207066.125,199810.844,193483.328,184633.281,193415.203,182923.109,-0.007,1.001,0.071,-1.709,-0.336,-0.275,80.000,114060.000,1.000
192800.344,190284.344,207024.375,199772.844,193450.156,184585.813,193373.891,182891.813,-0.005,1.000,0.071,-1.678,-0.275,-0.366,80.000,114061.000,1.000
192782.109,190283.719,207029.563,199768.547,193441.656,184599.313,193380.781,182863.750,-0.007,1.000,0.069,-1.740,-0.183,-0.336,80.000,114062.000,1.000
192794.172,190312.500,207063.266,199796.359,193459.094,184635.609,193410.641,182873.125,-0.007,1.000,0.069,-1.648,-0.275,-0.397,80.000,114063.000,1.000
192818.313,190337.094,207084.813,199817.984,193481.453,184657.781,193437.188,182905.672,-0.006,1.001,0.067,-1.740,-0.305,-0.244,80.000,114064.000,1.000
192825.734,190324.313,207062.906,199807.891,193479.484,184626.219,193417.172,182927.406,-0.004,0.999,0.070,-1.801,-0.214,-0.305,80.000,114065.000,1.000
192794.797,190283.000,207020.438,199773.281,193451.859,184579.016,193375.672,182900.406,-0.005,1.001,0.069,-1.953,-0.214,-0.397,80.000,114066.000,1.000
192780.313,190286.219,207032.234,199776.688,193455.250,184604.672,193392.219,182881.453,-0.007,1.002,0.067,-1.953,-0.183,-0.397,80.000,114067.000,1.000
192793.188,190319.125,207069.078,199804.578,193477.609,184647.594,193433.078,182893.422,-0.006,1.001,0.070,-1.953,-0.244,-0.458,80.000,114068.000,1.000
192809.375,190337.891,207084.000,199820.500,193492.266,184667.344,193449.703,182914.703,-0.007,1.001,0.068,-1.923,-0.153,-0.488,80.000,114069.000,1.000
192800.875,190310.453,207049.406,199796.359,193479.391,184631.500,193424.766,182923.906,-0.006,1.001,0.068,-1.923,-0.122,-0.488,80.000,114070.000,1.000
192764.578,190266.641,207002.563,199753.891,193444.797,184578.484,193379.875,182890.828,-0.007,1.002,0.071,-1.953,-0.122,-0.458,80.000,114071.000,1.000
192756.453,190277.813,207019.188,199761.938,193447.469,184595.828,193388.109,182868.844,-0.006,1.000,0.070,-1.953,-0.092,-0.519,80.000,114072.000,1.000
192765.391,190306.688,207052.359,199786.422,193466.344,184643.828,193419.313,182871.797,-0.007,1.000,0.068,-2.075,-0.092,-0.427,80.000,114073.000,1.000
192794.172,190337.094,207078.281,199811.188,193490.391,184670.656,193443.891,182903.625,-0.006,1.000,0.069,-2.075,-0.122,-0.397,80.000,114074.000,1.000
192805.797,190324.750,207059.953,199802.250,193488.688,184641.781,193434.594,182927.047,-0.007,0.998,0.071,-2.045,-0.061,-0.397,80.000,114075.000,1.000
192768.516,190274.063,207010.953,199756.391,193446.578,184581.703,193378.094,182888.516,-0.006,0.998,0.070,-1.923,0.031,-0.458,80.000,114076.000,1.000
192761.359,190282.906,207027.594,199766.766,193447.563,184597.609,193383.813,182870.531,-0.008,1.000,0.071,-1.892,0.092,-0.305,80.000,114077.000,1.000
192773.875,190310.266,207058.969,199792.063,193462.141,184630.063,193405.266,182873.125,-0.008,0.997,0.071,-1.831,0.000,-0.275,80.000,114078.000,1.000
192799.891,190339.328,207083.563,199815.750,193486.453,184661.359,193434.422,182904.156,-0.010,0.998,0.068,-1.678,0.031,-0.214,80.000,114079.000,1.000
192792.297,190310.891,207049.141,199793.578,193470.359,184618.984,193405.266,182912.109,-0.010,0.997,0.069,-1.709,-0.092,-0.183,80.000,114080.000,1.000
192764.766,190271.109,207008.813,199762.734,193441.750,184576.953,193369.063,182884.750,-0.009,1.000,0.068,-1.648,-0.092,-0.183,80.000,114081.000,1.000
192749.109,190273.438,207015.875,199762.469,193435.672,184590.453,193373.266,182857.219,-0.007,0.996,0.070,-1.648,0.000,-0.214,80.000,114082.000,1.000
192768.516,190310.453,207055.219,199793.484,193461.781,184637.578,193415.734,182871.797,-0.008,0.997,0.071,-1.617,-0.061,-0.214,80.000,114083.000,1.000
192796.672,190331.906,207075.875,199815.391,193480.641,184656.266,193436.563,182898.875,-0.009,0.998,0.070,-1.587,-0.061,-0.275,80.000,114084.000,1.000
192812.063,190318.859,207061.563,199811.906,193482.609,184628.906,193421.719,182926.859,-0.009,0.999,0.068,-1.617,-0.061,-0.336,80.000,114085.000,1.000
192790.156,190290.516,207030.984,199784.016,193463.125,184594.031,193390.516,182909.609,-0.007,1.000,0.068,-1.556,-0.153,-0.397,80.000,114086.000,1.000
192756.797,190280.500,207024.016,199764.172,193445.781,184590.453,193382.203,182868.125,-0.006,1.000,0.071,-1.556,-0.244,-0.427,80.000,114087.000,1.000
192767.094,190309.906,207059.063,199790.719,193471.078,184639.719,193426.547,182882.969,-0.005,1.001,0.069,-1.495,-0.183,-0.397,80.000,114088.000,1.000
192798.563,190342.813,207091.156,199820.313,193504.781,184679.328,193463.125,182922.484,-0.005,1.000,0.066,-1.556,-0.061,-0.244,80.000,114089.000,1.000
192800.531,190319.484,207066.484,199804.125,193495.219,184640.703,193433.797,182931.875,-0.007,0.996,0.068,-1.526,-0.092,-0.305,80.000,114090.000,1.000
192762.703,190270.484,207018.203,199760.953,193453.734,184573.563,193371.922,182889.672,-0.007,0.995,0.073,-1.404,-0.092,-0.305,80.000,114091.000,1.000
192744.563,190275.672,207025.891,199757.813,193451.859,184595.563,193384.984,182863.656,-0.010,0.995,0.070,-1.282,-0.122,-0.275,80.000,114092.000,1.000
192760.922,190313.313,207064.688,199788.656,193476.797,184645.797,193425.203,182873.938,-0.010,0.995,0.068,-1.160,0.000,-0.336,80.000,114093.000,1.000
192792.125,190345.047,207093.297,199816.109,193504.422,184678.531,193461.875,182912.297,-0.012,0.995,0.067,-1.038,-0.031,-0.366,80.000,114094.000,1.000
192804.375,190333.063,207076.047,199807.625,193501.391,184651.172,193441.297,182932.234,-0.010,0.998,0.069,-0.916,0.031,-0.427,80.000,114095.000,1.000
192772.266,190288.719,207032.063,199770.875,193465.438,184595.828,193380.422,182894.953,-0.010,0.998,0.069,-0.977,-0.061,-0.488,80.000,114096.000,1.000
192751.625,190285.422,207034.469,199770.422,193457.578,184611.375,193388.469,182868.922,-0.008,0.998,0.065,-0.885,-0.031,-0.488,80.000,114097.000,1.000
192759.484,190310.547,207061.922,199790.547,193472.156,184649.375,193424.672,182879.031,-0.006,1.001,0.063,-0.916,-0.031,-0.488,80.000,114098.000,1.000
192777.906,190324.938,207073.188,199803.859,193484.750,184661.266,193440.406,182903.969,-0.008,1.002,0.066,-0.885,-0.031,-0.488,80.000,114099.000,1.000
192779.516,190302.672,207045.297,199789.469,193476.438,184630.250,193423.781,182922.656,-0.008,0.999,0.065,-0.885,-0.153,-0.519,80.000,114100.000,1.000
192760.656,190275.313,207017.031,199768.547,193459.813,184600.922,193395.609,182914.609,-0.006,1.002,0.064,-1.007,-0.122,-0.610,80.000,114101.000,1.000
192731.766,190263.953,207011.406,199756.203,193440.500,184596.359,193387.578,182876.969,-0.006,1.006,0.064,-0.946,-0.122,-0.641,80.000,114102.000,1.000
192747.422,190295.516,207048.156,199786.703,193462.500,184639.906,193421.984,182889.047,-0.008,1.005,0.065,-1.068,-0.061,-0.732,80.000,114103.000,1.000
192780.141,190328.781,207076.047,199811.547,193489.141,184668.156,193449.531,182920.688,-0.009,1.005,0.066,-1.160,-0.031,-0.671,80.000,114104.000,1.000
192789.891,190316.266,207056.203,199797.688,193484.313,184639.188,193426.109,182935.625,-0.009,1.006,0.068,-1.343,-0.061,-0.763,80.000,114105.000,1.000
192756.797,190274.688,207013.016,199758.094,193453.016,184600.109,193384.797,182903.703,-0.011,1.005,0.070,-1.434,-0.244,-0.854,80.000,114106.000,1.000
192738.469,190276.031,207020.797,199758.797,193449.703,184617.641,193397.938,182882.250,-0.013,1.004,0.069,-1.556,-0.397,-1.007,80.000,114107.000,1.000
192757.250,190312.859,207060.578,199793.406,193474.656,184661.984,193432.719,182892.625,-0.012,1.005,0.067,-1.648,-0.305,-1.129,80.000,114108.000,1.000
192772.547,190326.547,207072.922,199806.188,193483.953,184670.203,193443.453,182910.688,-0.011,1.005,0.065,-1.709,-0.427,-1.099,80.000,114109.000,1.000
192778.266,190311.250,207052.531,199795.453,193482.344,184644.469,193434.063,182935.094,-0.011,1.005,0.066,-1.862,-0.519,-1.129,80.000,114110.000,1.000
192757.250,190282.469,207022.672,199769.000,193463.203,184608.703,193404.828,182917.563,-0.009,1.002,0.065,-1.984,-0.488,-1.190,80.000,114111.000,1.000
192732.750,190273.969,207020.250,199759.969,193447.922,184607.891,193396.250,182881.891,-0.010,1.003,0.064,-2.014,-0.519,-1.099,80.000,114112.000,1.000
192746.875,190303.656,207053.250,199788.844,193469.828,184654.391,193432.984,182892.891,-0.011,1.002,0.066,-1.923,-0.610,-1.007,80.000,114113.000,1.000
192775.938,190333.969,207080.516,199811.813,193496.297,184685.234,193456.063,182924.719,-0.010,1.002,0.070,-2.075,-0.671,-0.977,80.000,114114.000,1.000
192778.891,190312.328,207053.250,199792.063,193483.688,184639.359,193421.641,182933.297,-0.010,1.002,0.072,-2.167,-0.702,-0.854,80.000,114115.000,1.000
192751.172,190275.766,207014.094,199756.656,193456.953,184598.422,193387.031,182905.578,-0.010,1.000,0.070,-2.228,-0.732,-0.671,80.000,114116.000,1.000
192731.594,190277.094,207020.344,199754.781,193452.750,184613.266,193395.266,182879.750,-0.009,0.999,0.068,-2.228,-0.610,-0.610,80.000,114117.000,1.000
192750.359,190318.594,207065.234,199794.563,193487.531,184670.031,193445.859,182903.344,-0.011,1.001,0.070,-2.258,-0.641,-0.488,80.000,114118.000,1.000
192781.125,190353.813,207095.094,199822.641,193517.844,184706.156,193472.953,182934.734,-0.010,1.000,0.068,-2.258,-0.610,-0.366,80.000,114119.000,1.000
192788.188,190336.281,207072.656,199810.563,193508.719,184660.828,193441.750,182949.844,-0.006,0.998,0.068,-2.228,-0.641,-0.244,80.000,114120.000,1.000
192748.844,190284.344,207021.688,199767.656,193469.281,184607.094,193393.656,182913.813,-0.008,0.995,0.069,-2.167,-0.793,-0.275,80.000,114121.000,1.000
192730.078,190282.281,207025.359,199767.828,193462.578,184618.438,193399.281,182889.938,-0.009,0.997,0.069,-2.136,-0.732,-0.214,80.000,114122.000,1.000
192736.156,190301.953,207051.016,199785.359,193471.969,184652.156,193426.016,182890.031,-0.012,0.996,0.073,-2.045,-0.763,-0.061,80.000,114123.000,1.000
192759.672,190320.375,207069.344,199800.281,193485.734,184667.703,193438.797,182908.453,-0.014,0.992,0.071,-1.953,-0.732,-0.061,80.000,114124.000,1.000
192774.328,190311.609,207053.063,199790.094,193484.047,184641.422,193420.656,182926.328,-0.012,0.993,0.070,-1.923,-0.732,-0.122,80.000,114125.000,1.000
192749.922,190278.984,207014.172,199755.844,193455.969,184600.734,193384.891,182899.594,-0.012,0.994,0.068,-1.892,-0.732,-0.061,80.000,114126.000,1.000
192723.813,190273.531,207012.219,199749.859,193445.688,184607.094,193391.141,182869.641,-0.010,0.995,0.068,-1.892,-0.763,-0.061,80.000,114127.000,1.000
192731.406,190297.313,207041.453,199773.547,193462.141,184643.563,193421.281,182875.813,-0.009,0.995,0.072,-1.740,-0.824,0.031,80.000,114128.000,1.000
192770.844,190334.406,207077.031,199807.625,193495.844,184684.422,193458.734,182918.016,-0.009,0.999,0.069,-1.709,-0.885,-0.031,80.000,114129.000,1.000
192768.969,190304.906,207044.672,199785.438,193479.125,184637.578,193427.453,182924.984,-0.010,0.997,0.068,-1.709,-0.824,-0.031,80.000,114130.000,1.000
192733.828,190257.438,206996.469,199742.266,193440.766,184586.250,193381.766,182886.094,-0.008,0.997,0.067,-1.740,-0.763,-0.153,80.000,114131.000,1.000
192723.719,190267.094,207010.516,199747.625,193440.859,184602.000,193388.469,182862.141,-0.005,0.998,0.069,-1.648,-0.580,-0.031,80.000,114132.000,1.000
192742.313,190301.688,207049.938,199780.438,193462.766,184639.906,193416.453,182870.531,-0.005,0.998,0.067,-1.587,-0.519,-0.061,80.000,114133.000,1.000
192771.109,190329.859,207075.328,199805.203,193488.516,184671.813,193448.359,182902.641,-0.003,0.997,0.068,-1.526,-0.488,-0.031,80.000,114134.000,1.000
192781.297,190319.391,207056.828,199798.313,193486.547,184646.422,193429.406,182922.297,-0.002,0.998,0.063,-1.556,-0.366,0.000,80.000,114135.000,1.000
192751.266,190280.047,207014.172,199761.844,193453.641,184598.688,193382.750,182891.906,-0.003,0.998,0.065,-1.495,-0.366,-0.092,80.000,114136.000,1.000
192720.594,190268.422,207006.672,199747.094,193435.141,184598.063,193377.641,182854.984,-0.004,0.999,0.067,-1.495,-0.336,-0.031,80.000,114137.000,1.000
192737.047,190304.016,207045.469,199779.641,193461.156,184644.734,193421.359,182872.234,-0.006,0.999,0.067,-1.556,-0.183,-0.153,80.000,114138.000,1.000
192753.500,190318.938,207058.172,199790.266,193472.500,184655.281,193435.313,182892.359,-0.005,0.999,0.066,-1.495,-0.061,-0.153,80.000,114139.000,1.000
192761.719,190304.188,207036.625,199777.125,193469.734,184628.016,193421.094,182916.766,-0.005,1.000,0.067,-1.495,0.061,-0.305,80.000,114140.000,1.000
192740.078,190272.188,207002.469,199750.047,193446.047,184588.844,193380.328,182894.859,-0.006,1.000,0.066,-1.526,0.153,-0.305,80.000,114141.000,1.000
192714.156,190263.328,206999.422,199742.438,193430.938,184590.734,193372.453,182857.219,-0.005,1.000,0.067,-1.495,0.305,-0.275,80.000,114142.000,1.000
192730.516,190293.016,207034.563,199773.547,193453.375,184637.313,193412.875,182871.250,-0.005,0.999,0.069,-1.556,0.275,-0.336,80.000,114143.000,1.000
192764.766,190321.625,207062.281,199800.641,193478.141,184665.563,193438.797,182904.063,-0.006,1.001,0.068,-1.556,0.397,-0.336,80.000,114144.000,1.000
