EEG 1,EEG 2,EEG 3,EEG 4,EEG 5,EEG 6,EEG 7,EEG 8,Accelerometer X,Accelerometer Y,Accelerometer Z,Gyroscope X,Gyroscope Y,Gyroscope Z,Battery Level,Counter,Validation Indicator
190529.234,189829.891,210370.516,202892.875,193251.500,184412.188,192386.484,183314.984,0.048,1.000,0.073,-1.556,-0.763,-0.153,80.000,17057.000,1.000
190506.438,189826.766,210372.938,202885.094,193237.359,184423.719,192388.984,183288.609,0.049,1.000,0.075,-1.526,-0.732,-0.183,80.000,17058.000,1.000
190524.219,189861.453,210408.688,202909.500,193250.953,184466.906,192418.219,183291.828,0.049,0.998,0.075,-1.526,-0.763,-0.336,80.000,17059.000,1.000
190552.297,189888.359,210427.203,202923.984,193264.719,184482.453,192429.578,183311.938,0.049,1.001,0.077,-1.526,-0.702,-0.275,80.000,17060.000,1.000
190560.250,189865.734,210398.594,202907.984,193254.625,184451.344,192402.484,183312.125,0.049,1.001,0.076,-1.495,-0.610,-0.305,80.000,17061.000,1.000
190536.922,189836.859,210364.969,202870.703,193231.906,184422.828,192370.828,183278.141,0.050,1.001,0.076,-1.495,-0.610,-0.336,80.000,17062.000,1.000
190521.266,189848.219,210375.172,202865.422,193227.531,184447.672,192379.781,183248.641,0.050,1.002,0.073,-1.556,-0.580,-0.427,80.000,17063.000,1.000
190537.641,189882.813,210410.844,202890.906,193246.750,184496.578,192415.984,183256.234,0.050,1.001,0.073,-1.556,-0.519,-0.427,80.000,17064.000,1.000
190569.469,189907.766,210434.625,202914.688,193269.547,184519.828,192436.641,183279.031,0.053,0.997,0.073,-1.465,-0.488,-0.397,80.000,17065.000,1.000
190581.531,189889.344,210415.484,202908.344,193272.766,184494.438,192419.734,183285.031,0.054,0.998,0.074,-1.465,-0.275,-0.366,80.000,17066.000,1.000
190555.156,189855.547,210385.172,202881.969,193255.344,184461.266,192391.313,183254.453,0.052,0.999,0.072,-1.312,-0.305,-0.366,80.000,17067.000,1.000
190536.922,189860.109,210396.625,202884.016,193251.578,184473.969,192399.625,183232.188,0.049,0.997,0.072,-1.282,-0.244,-0.427,80.000,17068.000,1.000
190545.859,189885.953,210428.625,202910.578,193268.031,184505.875,192430.734,183244.438,0.049,0.997,0.074,-1.312,-0.153,-0.305,80.000,17069.000,1.000
190571.703,189907.313,210450.359,202933.547,193290.297,184518.391,192450.500,183273.234,0.046,0.999,0.072,-1.251,-0.183,-0.366,80.000,17070.000,1.000
190575.719,189878.344,210420.500,202919.969,193281.719,184468.516,192417.953,183279.313,0.046,1.000,0.073,-1.251,-0.092,-0.519,80.000,17071.000,1.000
190546.031,189837.750,210384.281,202892.063,193256.859,184417.547,192378.250,183250.703,0.046,0.999,0.074,-1.343,-0.214,-0.580,80.000,17072.000,1.000
190532.625,189849.016,210401.719,202902.891,193259.188,184434.797,192396.141,183243.984,0.045,0.998,0.075,-1.343,-0.153,-0.580,80.000,17073.000,1.000
190545.141,189878.891,210434.625,202928.906,193273.219,184463.859,192423.141,183261.063,0.044,1.000,0.071,-1.312,-0.183,-0.641,80.000,17074.000,1.000
190567.141,189891.844,210448.391,202944.734,193285.922,184470.031,192434.141,183284.578,0.045,1.002,0.071,-1.465,-0.031,-0.610,80.000,17075.000,1.000
190561.953,189855.375,210408.781,202919.516,193267.766,184418.703,192398.813,183286.188,0.046,1.000,0.072,-1.404,-0.122,-0.610,80.000,17076.000,1.000
190530.656,189818.891,210371.406,202889.391,193244.781,184382.500,192375.031,183270.094,0.045,1.001,0.071,-1.404,-0.244,-0.610,80.000,17077.000,1.000
190514.484,189831.500,210383.219,202894.125,193243.000,184402.438,192383.078,183262.047,0.046,1.001,0.071,-1.404,-0.214,-0.488,80.000,17078.000,1.000
190524.844,189863.500,210414.328,202918.000,193256.141,184439.906,192406.688,183286.094,0.044,0.999,0.073,-1.495,-0.305,-0.458,80.000,17079.000,1.000
190542.188,189880.141,210424.516,202929.531,193267.938,184461.984,192427.781,183319.094,0.042,1.002,0.074,-1.526,-0.122,-0.519,80.000,17080.000,1.000
190550.063,189858.047,210394.391,202912.547,193259.453,184436.500,192406.328,183323.563,0.042,1.003,0.073,-1.587,-0.275,-0.427,80.000,17081.000,1.000
190522.797,189821.391,210355.234,202876.516,193231.641,184403.156,192370.125,183286.906,0.044,1.004,0.071,-1.617,-0.366,-0.488,80.000,17082.000,1.000
190504.016,189827.469,210363.281,202871.328,193227.797,184431.672,192387.828,183270.094,0.043,1.004,0.070,-1.678,-0.366,-0.549,80.000,17083.000,1.000
190520.734,189865.656,210400.469,202898.422,193249.266,184480.125,192427.344,183287.891,0.045,1.004,0.076,-1.678,-0.305,-0.488,80.000,17084.000,1.000
190548.813,189884.969,210416.922,202915.672,193266.422,184499.172,192440.750,183306.578,0.044,1.006,0.075,-1.831,-0.366,-0.702,80.000,17085.000,1.000
190555.422,189861.453,210387.234,202901.641,193259.188,184464.750,192410.625,183312.750,0.042,1.007,0.072,-1.923,-0.336,-0.671,80.000,17086.000,1.000
190524.313,189823.188,210347.891,202862.922,193232.813,184432.203,192375.297,183271.703,0.042,1.006,0.073,-2.136,-0.488,-0.763,80.000,17087.000,1.000
190513.672,189839.906,210368.453,202870.609,193240.141,184468.516,192400.156,183256.156,0.046,1.008,0.076,-2.197,-0.549,-0.671,80.000,17088.000,1.000
190532.266,189882.906,210412.000,202905.031,193268.656,184524.750,192448.438,183278.063,0.044,1.007,0.074,-2.258,-0.641,-0.671,80.000,17089.000,1.000
190560.797,189906.328,210433.453,202929.078,193289.766,184541.734,192463.734,183302.641,0.044,1.004,0.075,-2.411,-0.763,-0.671,80.000,17090.000,1.000
190562.578,189880.141,210402.875,202914.875,193280.375,184493.453,192426.531,183302.281,0.046,1.003,0.074,-2.411,-0.702,-0.641,80.000,17091.000,1.000
190539.156,189845.266,210372.297,202891.797,193261.859,184458.500,192400.969,183271.703,0.046,1.003,0.073,-2.319,-0.763,-0.610,80.000,17092.000,1.000
190523.781,189852.500,210387.859,202893.594,193259.188,184465.469,192402.750,183246.141,0.045,1.001,0.076,-2.319,-0.763,-0.519,80.000,17093.000,1.000
190535.313,189884.250,210423.438,202915.766,193272.766,184488.719,192420.453,183252.031,0.044,1.001,0.075,-2.258,-0.793,-0.427,80.000,17094.000,1.000
190569.109,189907.672,210447.766,202940.344,193290.656,184500.156,192436.094,183272.594,0.047,1.002,0.075,-2.197,-0.793,-0.397,80.000,17095.000,1.000
190581.531,189881.828,210425.141,202930.063,193281.984,184454.031,192402.219,183270.094,0.046,0.999,0.076,-2.258,-0.793,-0.275,80.000,17096.000,1.000
190558.375,189844.641,210392.422,202899.484,193258.109,184409.859,192369.672,183239.703,0.047,1.000,0.078,-2.289,-0.793,-0.183,80.000,17097.000,1.000
190539.953,189853.766,210403.328,202900.031,193252.750,184420.594,192382.719,183224.859,0.047,1.000,0.077,-2.197,-0.793,-0.031,80.000,17098.000,1.000
190551.844,189883.703,210437.922,202930.250,193270.094,184449.109,192410.172,183250.422,0.046,0.998,0.074,-2.167,-0.702,0.000,80.000,17099.000,1.000
190567.766,189888.719,210443.828,202936.766,193277.250,184446.609,192413.922,183270.547,0.046,0.998,0.077,-2.228,-0.610,-0.031,80.000,17100.000,1.000
190567.500,189863.500,210411.641,202917.734,193267.313,184403.953,192386.844,183279.313,0.047,0.995,0.079,-2.106,-0.549,-0.031,80.000,17101.000,1.000
190537.719,189826.047,210374.547,202888.500,193246.391,184371.406,192366.813,183267.234,0.048,0.997,0.080,-2.106,-0.580,-0.092,80.000,17102.000,1.000
190511.703,189832.219,210379.641,202883.578,193240.938,184392.156,192386.031,183259.094,0.050,0.999,0.078,-2.075,-0.641,0.000,80.000,17103.000,1.000
190513.672,189855.188,210403.234,202898.500,193251.219,184426.672,192410.625,183275.109,0.050,0.998,0.077,-2.045,-0.641,-0.031,80.000,17104.000,1.000
190535.578,189872.625,210417.188,202916.656,193264.906,184441.156,192421.172,183307.203,0.048,0.995,0.072,-1.984,-0.519,0.000,80.000,17105.000,1.000
190544.516,189851.609,210391.531,202907.266,193262.125,184416.391,192404.094,183324.719,0.047,0.995,0.073,-1.953,-0.549,-0.122,80.000,17106.000,1.000
190519.656,189819.156,210356.219,202876.688,193243.094,184393.938,192382.375,183303.453,0.047,0.997,0.078,-1.984,-0.427,-0.031,80.000,17107.000,1.000
190505.625,189833.203,210371.234,202878.391,193245.406,184432.563,192402.484,183285.125,0.047,0.999,0.077,-1.862,-0.366,-0.122,80.000,17108.000,1.000
190515.813,189870.563,210406.188,202901.641,193265.797,184487.469,192441.828,183294.063,0.047,0.999,0.078,-1.923,-0.275,-0.153,80.000,17109.000,1.000
190538.969,189895.516,210425.766,202920.141,193287.078,184513.484,192457.828,183318.375,0.047,0.999,0.074,-1.892,-0.397,-0.153,80.000,17110.000,1.000
190540.578,189866.906,210393.500,202905.656,193277.953,184474.594,192423.406,183320.609,0.048,0.998,0.072,-1.862,-0.214,-0.275,80.000,17111.000,1.000
190506.516,189822.203,210350.125,202870.344,193249.891,184434.625,192386.031,183283.953,0.049,1.000,0.077,-1.923,-0.153,-0.305,80.000,17112.000,1.000
190487.656,189830.156,210362.375,202873.297,193247.922,184452.594,192397.656,183263.391,0.051,0.999,0.077,-1.862,-0.153,-0.244,80.000,17113.000,1.000
190514.203,189874.406,210411.203,202917.453,193280.109,184509.094,192446.922,183289.953,0.050,0.999,0.078,-1.984,-0.031,-0.397,80.000,17114.000,1.000
190545.859,189899.172,210434.625,202936.422,193305.141,184535.656,192478.391,183325.078,0.051,1.000,0.078,-1.923,0.000,-0.336,80.000,17115.000,1.000
190554.359,189878.797,210408.250,202923.547,193298.703,184491.672,192446.734,183328.391,0.051,1.000,0.077,-1.984,-0.031,-0.397,80.000,17116.000,1.000
190527.703,189841.063,210373.734,202895.641,193277.875,184453.844,192417.141,183297.813,0.049,1.001,0.078,-2.045,0.031,-0.397,80.000,17117.000,1.000
190503.844,189843.563,210382.047,202893.141,193271.609,184465.922,192425.641,183273.234,0.049,1.002,0.075,-1.953,0.031,-0.336,80.000,17118.000,1.000
190515.109,189878.438,210418.797,202916.828,193288.156,184496.766,192448.438,183281.984,0.049,1.001,0.080,-1.862,0.122,-0.275,80.000,17119.000,1.000
190550.781,189905.969,210446.516,202940.703,193310.953,184512.938,192464.172,183302.641,0.047,1.001,0.080,-1.923,0.061,-0.275,80.000,17120.000,1.000
190564.188,189883.625,210421.656,202929.984,193304.516,184475.484,192440.125,183303.000,0.044,1.000,0.077,-1.892,0.122,-0.244,80.000,17121.000,1.000
190539.953,189843.922,210383.219,202898.234,193273.578,184421.297,192398.469,183269.375,0.044,1.000,0.074,-1.892,0.122,-0.214,80.000,17122.000,1.000
190525.656,189852.234,210396.438,202897.969,193265.703,184428.453,192401.766,183251.766,0.044,1.000,0.075,-1.770,0.031,-0.244,80.000,17123.000,1.000
190542.906,189887.375,210434.359,202925.953,193280.734,184462.609,192432.250,183271.266,0.046,1.000,0.078,-1.801,0.061,-0.244,80.000,17124.000,1.000
190574.375,189908.125,210453.484,202944.375,193296.828,184479.063,192454.156,183303.453,0.045,0.999,0.076,-1.648,-0.031,-0.153,80.000,17125.000,1.000
190581.531,189880.766,210420.219,202926.141,193282.781,184425.859,192411.156,183308.281,0.044,0.999,0.079,-1.648,0.000,-0.153,80.000,17126.000,1.000
190552.656,189846.875,210382.313,202894.219,193255.250,184376.234,192368.875,183280.297,0.044,1.001,0.080,-1.617,-0.061,-0.244,80.000,17127.000,1.000
190534.688,189851.609,210393.844,202896.984,193251.500,184389.203,192377.266,183269.922,0.042,1.000,0.077,-1.526,-0.092,-0.336,80.000,17128.000,1.000
190543.266,189879.234,210424.156,202917.281,193266.250,184425.594,192407.484,183286.813,0.042,0.999,0.076,-1.617,-0.214,-0.244,80.000,17129.000,1.000
190561.766,189893.359,210435.344,202929.266,193280.547,184435.344,192424.656,183318.828,0.043,1.000,0.076,-1.587,-0.183,-0.336,80.000,17130.000,1.000
190562.578,189864.313,210401.266,202914.328,193271.703,184398.594,192398.734,183330.266,0.042,1.000,0.076,-1.465,-0.275,-0.244,80.000,17131.000,1.000
190535.844,189830.063,210364.891,202886.703,193253.734,184372.672,192379.953,183310.516,0.042,1.002,0.078,-1.465,-0.397,-0.275,80.000,17132.000,1.000
190518.953,189840.344,210377.125,202890.453,193255.688,184401.094,192397.828,183297.281,0.041,1.000,0.074,-1.556,-0.488,-0.214,80.000,17133.000,1.000
190529.766,189872.719,210412.984,202919.344,193275.359,184445.000,192428.063,183312.828,0.040,1.001,0.076,-1.556,-0.549,-0.183,80.000,17134.000,1.000
190552.563,189893.188,210431.047,202936.766,193295.578,184469.938,192447.641,183335.359,0.041,1.000,0.078,-1.465,-0.580,-0.275,80.000,17135.000,1.000
190563.922,189878.438,210410.750,202929.703,193300.844,184455.813,192437.266,183348.859,0.044,1.001,0.076,-1.434,-0.610,-0.336,80.000,17136.000,1.000
190537.984,189841.953,210375.438,202902.531,193281.000,184431.500,192410.797,183321.688,0.044,1.003,0.076,-1.556,-0.580,-0.458,80.000,17137.000,1.000
190510.547,189839.547,210373.375,202889.297,193265.531,184445.625,192411.516,183286.813,0.044,1.003,0.073,-1.556,-0.641,-0.397,80.000,17138.000,1.000
190520.734,189874.859,210409.234,202916.922,193288.422,184499.359,192455.766,183305.500,0.046,1.003,0.072,-1.495,-0.580,-0.427,80.000,17139.000,1.000
190550.234,189905.891,210433.375,202942.766,193318.453,184538.063,192493.859,183339.391,0.046,1.001,0.074,-1.495,-0.671,-0.427,80.000,17140.000,1.000
190549.344,189873.875,210396.891,202919.344,193302.719,184497.391,192459.531,183330.719,0.045,1.000,0.075,-1.465,-0.763,-0.366,80.000,17141.000,1.000
190522.250,189833.375,210358.984,202887.516,193272.953,184449.203,192413.844,183293.078,0.046,0.998,0.071,-1.434,-0.641,-0.397,80.000,17142.000,1.000
190511.703,189845.094,210374.000,202888.500,193271.781,184471.281,192428.953,183275.375,0.048,0.998,0.068,-1.434,-0.610,-0.336,80.000,17143.000,1.000
190526.281,189876.375,210407.797,202906.469,193287.875,184513.922,192467.219,183289.953,0.048,0.996,0.071,-1.221,-0.671,-0.336,80.000,17144.000,1.000
190557.656,189899.719,210427.469,202924.438,193300.938,184523.859,192475.625,183311.219,0.047,1.000,0.073,-1.160,-0.671,-0.305,80.000,17145.000,1.000
190567.766,189880.141,210404.938,202914.781,193294.594,184486.297,192450.406,183322.125,0.047,1.000,0.071,-1.129,-0.702,-0.183,80.000,17146.000,1.000
190540.500,189841.875,210370.781,202885.719,193268.125,184442.484,192415.984,183296.391,0.048,0.997,0.076,-1.129,-0.702,-0.183,80.000,17147.000,1.000
190530.125,189850.000,210383.750,202889.031,193261.781,184454.375,192423.141,183278.859,0.046,0.999,0.073,-1.038,-0.702,-0.275,80.000,17148.000,1.000
190551.578,189884.156,210421.750,202920.141,193277.063,184486.031,192444.688,183295.219,0.047,0.998,0.075,-1.007,-0.610,-0.366,80.000,17149.000,1.000
190578.219,189907.047,210443.563,202940.609,193297.094,184505.875,192469.188,183324.547,0.048,0.997,0.072,-1.099,-0.549,-0.397,80.000,17150.000,1.000
190583.953,189882.813,210415.844,202921.125,193281.891,184449.906,192417.766,183317.297,0.048,0.998,0.073,-1.129,-0.458,-0.549,80.000,17151.000,1.000
190563.563,189840.797,210380.797,202888.047,193248.813,184393.234,192365.922,183280.375,0.048,0.999,0.074,-1.251,-0.427,-0.580,80.000,17152.000,1.000
190553.016,189852.063,210397.516,202890.016,193242.828,184405.297,192372.438,183256.234,0.046,0.999,0.074,-1.251,-0.336,-0.610,80.000,17153.000,1.000
190568.203,189888.453,210436.234,202919.063,193261.688,184446.516,192408.391,183271.172,0.046,1.000,0.075,-1.251,-0.427,-0.580,80.000,17154.000,1.000
190599.406,189916.250,210462.609,202946.609,193286.813,184470.828,192433.063,183300.234,0.046,1.003,0.072,-1.312,-0.397,-0.610,80.000,17155.000,1.000
190617.297,189903.016,210444.641,202941.328,193288.859,184439.266,192411.516,183317.125,0.045,1.005,0.072,-1.343,-0.305,-0.641,80.000,17156.000,1.000
190586.719,189862.703,210405.563,202909.859,193265.078,184396.359,192372.797,183292.984,0.047,1.004,0.073,-1.526,-0.305,-0.671,80.000,17157.000,1.000
190560.156,189865.656,210411.203,202905.031,193261.156,184413.797,192380.578,183273.234,0.046,1.004,0.075,-1.556,-0.336,-0.671,80.000,17158.000,1.000
190575.188,189904.359,210451.344,202937.047,193290.750,184464.578,192423.500,183298.078,0.047,1.002,0.073,-1.740,-0.458,-0.641,80.000,17159.000,1.000
190602.188,189926.359,210470.828,202961.266,193316.406,184492.656,192454.609,183335.813,0.046,1.003,0.070,-1.770,-0.366,-0.641,80.000,17160.000,1.000
190596.109,189887.563,210430.328,202936.859,193302.453,184450.984,192423.578,183338.219,0.045,1.003,0.071,-1.862,-0.488,-0.580,80.000,17161.000,1.000
190560.969,189849.016,210386.703,202899.219,193277.156,184413.875,192394.172,183309.250,0.047,1.003,0.073,-1.831,-0.427,-0.610,80.000,17162.000,1.000
190537.453,189855.547,210395.906,202904.047,193278.313,184439.813,192416.250,183297.547,0.046,1.004,0.073,-1.953,-0.366,-0.519,80.000,17163.000,1.000
190546.125,189887.641,210428.984,202927.563,193299.953,184493.547,192460.516,183312.563,0.046,1.002,0.073,-1.953,-0.305,-0.397,80.000,17164.000,1.000
190570.797,189910.891,210446.688,202943.031,193320.875,184520.984,192488.219,183342.969,0.045,1.002,0.070,-2.136,-0.305,-0.427,80.000,17165.000,1.000
190586.094,189897.031,210428.094,202940.891,193325.875,184502.750,192477.500,183360.125,0.046,1.004,0.070,-2.258,-0.366,-0.275,80.000,17166.000,1.000
190550.063,189851.344,210382.766,202900.297,193293.781,184462.609,192435.125,183319.094,0.045,1.003,0.073,-2.319,-0.275,-0.244,80.000,17167.000,1.000
190535.047,189863.594,210397.609,202901.813,193291.906,184485.578,192449.781,183300.047,0.045,1.001,0.072,-2.380,-0.366,-0.305,80.000,17168.000,1.000
190559.625,189909.109,210444.188,202936.594,193317.828,184541.281,192497.438,183319.625,0.046,1.000,0.072,-2.380,-0.366,-0.305,80.000,17169.000,1.000
190586.359,189930.109,210459.563,202946.781,193324.531,184538.328,192489.750,183329.375,0.045,1.000,0.075,-2.441,-0.366,-0.214,80.000,17170.000,1.000
190588.594,189889.969,210422.734,202921.750,193304.250,184493.359,192443.797,183313.375,0.045,1.000,0.075,-2.472,-0.336,-0.122,80.000,17171.000,1.000
190567.141,189862.344,210390.984,202897.172,193283.406,184459.391,192413.922,183282.438,0.044,0.999,0.073,-2.502,-0.366,-0.153,80.000,17172.000,1.000
190546.031,189864.578,210397.609,202892.344,193272.063,184464.125,192410.797,183254.625,0.045,0.998,0.074,-2.502,-0.244,-0.183,80.000,17173.000,1.000
190554.984,189891.750,210428.547,202910.844,193281.094,184490.953,192430.922,183262.313,0.044,0.997,0.075,-2.502,-0.366,-0.122,80.000,17174.000,1.000
190589.406,189919.297,210451.344,202929.703,193299.953,184510.438,192454.703,183290.391,0.046,0.996,0.076,-2.502,-0.366,-0.092,80.000,17175.000,1.000
190611.578,189908.828,210436.859,202930.063,193301.375,184477.266,192428.406,183304.250,0.047,0.997,0.080,-2.472,-0.366,-0.153,80.000,17176.000,1.000
190578.578,189864.578,210391.531,202896.547,193264.281,184412.625,192374.859,183272.781,0.045,0.998,0.075,-2.350,-0.305,-0.183,80.000,17177.000,1.000
190550.516,189857.250,210389.016,202886.172,193243.625,184407.359,192366.625,183241.219,0.045,0.998,0.072,-2.441,-0.397,-0.122,80.000,17178.000,1.000
190564.641,189890.781,210426.125,202912.547,193259.000,184442.938,192394.891,183251.406,0.045,0.999,0.072,-2.411,-0.366,-0.275,80.000,17179.000,1.000
190587.797,189913.219,210446.953,202932.922,193278.938,184459.922,192417.500,183284.406,0.045,0.999,0.076,-2.289,-0.458,-0.305,80.000,17180.000,1.000
190590.297,189886.125,210416.656,202919.063,193271.516,184415.672,192387.734,183298.531,0.047,0.997,0.079,-2.380,-0.458,-0.427,80.000,17181.000,1.000
190564.359,189849.203,210381.063,202894.656,193255.781,184381.516,192368.422,183291.469,0.046,0.997,0.078,-2.319,-0.427,-0.397,80.000,17182.000,1.000
190539.781,189843.031,210383.656,202890.734,193250.422,184401.094,192384.063,183278.234,0.046,0.999,0.077,-2.350,-0.427,-0.336,80.000,17183.000,1.000
190549.703,189878.250,210416.109,202912.359,193270.625,184449.016,192423.141,183296.656,0.048,0.998,0.075,-2.258,-0.458,-0.305,80.000,17184.000,1.000
190572.953,189900.969,210435.063,202932.844,193294.594,184468.859,192446.828,183334.375,0.047,0.999,0.078,-2.167,-0.336,-0.305,80.000,17185.000,1.000
190569.469,189869.406,210399.391,202913.172,193286.984,184436.406,192429.578,183345.203,0.048,0.999,0.076,-2.136,-0.305,-0.427,80.000,17186.000,1.000
190541.563,189834.172,210361.391,202883.578,193267.594,184405.484,192404.813,183321.953,0.047,0.999,0.076,-2.106,-0.366,-0.427,80.000,17187.000,1.000
190518.406,189838.297,210368.547,202884.109,193264.453,184428.547,192417.500,183306.484,0.046,1.000,0.076,-2.045,-0.305,-0.519,80.000,17188.000,1.000
190527.266,189872.172,210406.188,202911.469,193285.828,184479.422,192454.875,183318.203,0.046,1.000,0.076,-2.045,-0.305,-0.488,80.000,17189.000,1.000
190555.516,189895.156,210429.250,202931.859,193306.484,184506.328,192476.250,183340.109,0.046,1.001,0.075,-2.014,-0.214,-0.610,80.000,17190.000,1.000
190571.156,189878.438,210408.063,202925.594,193306.484,184484.781,192465.422,183352.078,0.046,0.998,0.076,-2.075,-0.244,-0.610,80.000,17191.000,1.000
190547.828,189848.031,210372.484,202891.625,193276.078,184440.797,192420.453,183306.125,0.045,0.999,0.077,-1.953,-0.214,-0.671,80.000,17192.000,1.000
190530.750,189850.547,210380.625,202886.891,193265.344,184454.563,192421.797,183275.016,0.044,1.000,0.079,-1.953,-0.397,-0.610,80.000,17193.000,1.000
190537.281,189877.547,210409.859,202905.484,193275.188,184490.500,192443.516,183275.016,0.044,1.000,0.078,-1.831,-0.366,-0.641,80.000,17194.000,1.000
190564.188,189905.266,210431.313,202923.188,193294.766,184513.922,192465.875,183301.563,0.044,0.998,0.080,-1.831,-0.336,-0.641,80.000,17195.000,1.000
190573.938,189882.813,210404.578,202909.406,193287.531,184480.047,192437.891,183300.859,0.045,0.997,0.078,-1.923,-0.397,-0.610,80.000,17196.000,1.000
190547.203,189846.969,210369.984,202874.359,193264.375,184445.984,192406.328,183269.203,0.043,1.000,0.078,-1.953,-0.427,-0.549,80.000,17197.000,1.000
190525.750,189851.438,210377.938,202868.906,193255.063,184458.578,192407.766,183246.141,0.042,0.999,0.075,-1.923,-0.427,-0.641,80.000,17198.000,1.000
190533.344,189876.563,210407.078,202888.313,193264.813,184485.859,192430.016,183256.234,0.042,1.000,0.077,-1.862,-0.580,-0.641,80.000,17199.000,1.000
190533.344,189876.563,210407.078,202888.313,193264.813,184485.859,192430.016,183256.234,0.042,1.000,0.077,-1.862,-0.580,-0.641,80.000,17200.000,0.000
190533.344,189876.563,210407.078,202888.313,193264.813,184485.859,192430.016,183256.234,0.042,1.000,0.077,-1.862,-0.580,-0.641,80.000,17201.000,0.000
190542.016,189847.500,210368.016,202876.156,193259.719,184426.313,192389.875,183276.797,0.041,1.001,0.081,-1.740,-0.671,-0.580,80.000,17202.000,1.000
190523.500,189852.500,210378.469,202878.484,193256.672,184437.313,192397.203,183260.984,0.043,1.000,0.083,-1.770,-0.641,-0.427,80.000,17203.000,1.000
190528.609,189877.547,210408.250,202901.453,193273.047,184467.250,192424.750,183281.094,0.043,1.000,0.080,-1.709,-0.732,-0.458,80.000,17204.000,1.000
190550.781,189896.047,210424.156,202921.484,193291.547,184481.563,192446.297,183316.672,0.042,1.000,0.078,-1.801,-0.732,-0.488,80.000,17205.000,1.000
190560.875,189873.875,210400.469,202912.813,193288.500,184445.797,192426.000,183333.313,0.043,1.002,0.077,-1.709,-0.763,-0.275,80.000,17206.000,1.000
190534.141,189837.219,210363.813,202882.859,193263.031,184401.547,192393.547,183307.563,0.044,1.002,0.078,-1.678,-0.885,-0.275,80.000,17207.000,1.000
190513.578,189838.297,210369.891,202881.969,193255.250,184414.859,192401.141,183288.250,0.045,1.000,0.080,-1.617,-0.946,-0.305,80.000,17208.000,1.000
190533.078,189874.328,210407.984,202909.328,193276.609,184458.047,192438.875,183307.656,0.044,1.001,0.079,-1.648,-0.854,-0.305,80.000,17209.000,1.000
190566.422,189901.953,210433.547,202932.750,193299.859,184481.828,192460.516,183336.797,0.046,1.001,0.077,-1.587,-0.885,-0.244,80.000,17210.000,1.000
190578.047,189884.063,210411.109,202920.047,193295.844,184450.719,192436.094,183341.438,0.045,1.002,0.078,-1.526,-0.854,-0.214,80.000,17211.000,1.000
190550.328,189842.859,210373.641,202886.609,193270.625,184418.266,192406.328,183306.938,0.047,0.999,0.077,-1.526,-0.854,-0.183,80.000,17212.000,1.000
190527.625,189846.609,210382.234,202885.281,193264.719,184441.781,192423.859,183287.438,0.046,0.999,0.076,-1.556,-0.793,-0.092,80.000,17213.000,1.000
190538.172,189880.672,210415.047,202905.484,193280.188,184488.984,192458.813,183294.859,0.045,1.000,0.075,-1.678,-0.763,-0.061,80.000,17214.000,1.000
190562.406,189904.281,210432.391,202925.594,193299.063,184523.766,192487.516,183318.016,0.048,1.001,0.074,-1.709,-0.824,-0.092,80.000,17215.000,1.000
190566.063,189879.063,210400.016,202911.734,193285.828,184483.344,192446.469,183315.156,0.047,1.000,0.074,-1.678,-0.763,-0.092,80.000,17216.000,1.000
190533.703,189836.422,210353.703,202870.969,193251.406,184440.703,192399.625,183267.859,0.047,0.999,0.072,-1.617,-0.610,-0.244,80.000,17217.000,1.000
190510.547,189841.063,210358.000,202865.344,193243.000,184464.219,192413.922,183243.359,0.048,1.000,0.075,-1.587,-0.580,-0.153,80.000,17218.000,1.000
190516.984,189869.859,210387.500,202883.219,193249.969,184494.172,192426.172,183241.844,0.047,1.000,0.075,-1.678,-0.641,-0.153,80.000,17219.000,1.000
190547.641,189889.609,210409.047,202908.344,193269.828,184511.875,192447.906,183274.844,0.049,1.000,0.077,-1.648,-0.397,-0.122,80.000,17220.000,1.000
190564.906,189871.469,210389.297,202900.031,193272.063,184486.125,192431.719,183291.828,0.048,1.001,0.077,-1.648,-0.366,-0.122,80.000,17221.000,1.000
190542.469,189834.813,210353.891,202870.344,193249.078,184440.969,192394.969,183266.344,0.047,1.001,0.077,-1.587,-0.458,-0.092,80.000,17222.000,1.000
190525.391,189841.516,210367.563,202872.844,193249.609,184453.125,192404.094,183254.891,0.049,0.999,0.076,-1.709,-0.244,-0.183,80.000,17223.000,1.000
190534.141,189871.188,210402.438,202898.328,193267.406,184489.516,192439.766,183272.688,0.051,1.001,0.074,-1.556,-0.275,-0.214,80.000,17224.000,1.000
190563.375,189896.234,210425.406,202920.328,193290.922,184507.938,192462.656,183305.594,0.048,1.001,0.076,-1.648,-0.244,-0.244,80.000,17225.000,1.000
190567.938,189871.734,210396.891,202906.734,193289.047,184470.391,192442.813,183326.609,0.047,1.003,0.077,-1.526,-0.122,-0.305,80.000,17226.000,1.000
190540.047,189834.359,210360.688,202877.047,193269.906,184431.672,192411.422,183307.656,0.049,1.001,0.074,-1.648,-0.122,-0.305,80.000,17227.000,1.000
190523.781,189848.313,210376.234,202883.125,193273.219,184452.766,192423.938,183295.484,0.047,1.001,0.075,-1.587,-0.061,-0.244,80.000,17228.000,1.000
190529.766,189877.453,210410.656,202909.141,193295.750,184495.422,192461.578,183320.172,0.048,1.002,0.077,-1.740,0.122,-0.275,80.000,17229.000,1.000
190554.625,189897.750,210429.438,202931.406,193314.531,184510.000,192480.453,183349.672,0.047,1.002,0.078,-1.740,0.153,-0.244,80.000,17230.000,1.000
190564.906,189873.250,210404.938,202924.609,193309.344,184475.219,192459.703,183363.344,0.048,1.002,0.077,-1.740,0.153,-0.275,80.000,17231.000,1.000
190540.313,189837.125,210369.531,202895.109,193284.484,184437.578,192430.016,183336.172,0.045,1.003,0.077,-1.740,0.183,-0.275,80.000,17232.000,1.000
190518.141,189839.453,210373.375,202886.250,193265.984,184433.547,192414.469,183298.078,0.048,1.001,0.077,-1.801,0.153,-0.305,80.000,17233.000,1.000
190527.891,189871.281,210404.484,202905.656,193275.359,184466.453,192436.094,183300.047,0.046,1.001,0.078,-1.740,0.244,-0.305,80.000,17234.000,1.000
190558.109,189897.656,210426.578,202926.047,193294.672,184488.266,192456.938,183326.688,0.044,1.000,0.074,-1.770,0.244,-0.305,80.000,17235.000,1.000
190566.781,189879.063,210399.938,202906.109,193285.281,184454.203,192424.922,183323.203,0.044,1.000,0.073,-1.862,0.153,-0.244,80.000,17236.000,1.000
190545.688,189843.031,210363.813,202870.875,193257.938,184419.609,192389.781,183282.438,0.046,0.999,0.074,-1.801,0.183,-0.336,80.000,17237.000,1.000
190533.703,189853.313,210375.969,202869.719,193251.500,184439.719,192395.422,183255.344,0.044,1.000,0.078,-1.831,0.153,-0.305,80.000,17238.000,1.000
190547.297,189887.563,210412.531,202895.906,193266.422,184484.063,192425.188,183265.094,0.046,1.000,0.075,-1.770,0.122,-0.275,80.000,17239.000,1.000
190568.125,189904.984,210427.828,202912.359,193281.000,184509.188,192449.516,183291.563,0.044,0.998,0.075,-1.801,0.092,-0.336,80.000,17240.000,1.000
190574.828,189886.922,210400.922,202900.922,193276.344,184480.672,192430.016,183305.234,0.044,1.001,0.076,-1.801,0.122,-0.244,80.000,17241.000,1.000
190545.406,189844.641,210359.609,202869.719,193248.719,184443.297,192396.500,183278.234,0.043,0.998,0.075,-1.862,0.031,-0.275,80.000,17242.000,1.000
190518.500,189839.188,210362.016,202866.313,193239.875,184460.813,192415.094,183264.906,0.043,1.000,0.077,-1.892,-0.061,-0.366,80.000,17243.000,1.000
190522.172,189862.969,210387.141,202884.828,193250.859,184489.344,192438.344,183276.625,0.045,1.002,0.078,-1.862,-0.122,-0.366,80.000,17244.000,1.000
190544.422,189882.016,210401.359,202899.313,193267.406,184500.875,192452.469,183301.391,0.045,0.999,0.078,-1.831,-0.153,-0.366,80.000,17245.000,1.000
190561.234,189863.688,210381.688,202889.922,193269.547,184470.203,192433.516,183310.156,0.045,1.000,0.077,-1.862,-0.183,-0.336,80.000,17246.000,1.000
190542.469,189833.016,210354.609,202869.000,193256.141,184434.891,192398.109,183287.000,0.045,1.000,0.077,-1.740,-0.153,-0.336,80.000,17247.000,1.000
190528.063,189847.953,210373.563,202878.031,193264.547,184456.625,192412.938,183279.844,0.043,1.000,0.074,-1.770,-0.183,-0.275,80.000,17248.000,1.000
190540.938,189884.344,210412.266,202904.938,193288.781,184502.219,192447.719,183298.266,0.043,1.000,0.076,-1.770,-0.366,-0.336,80.000,17249.000,1.000
190568.656,189911.516,210435.969,202927.391,193314.344,184531.188,192479.547,183333.313,0.042,1.000,0.079,-1.831,-0.427,-0.214,80.000,17250.000,1.000
190577.594,189894.531,210413.703,202918.359,193316.313,184509.547,192471.688,183351.016,0.044,0.999,0.077,-1.831,-0.519,-0.244,80.000,17251.000,1.000
190547.563,189854.656,210373.563,202883.844,193289.938,184469.766,192435.922,183319.188,0.045,0.999,0.081,-1.648,-0.427,-0.183,80.000,17252.000,1.000
190528.422,189861.984,210385.094,202885.000,193286.453,184488.359,192449.422,183299.328,0.046,0.999,0.077,-1.587,-0.366,-0.244,80.000,17253.000,1.000
190527.000,189881.563,210407.984,202899.672,193290.391,184511.781,192470.703,183303.453,0.047,1.000,0.077,-1.617,-0.549,-0.214,80.000,17254.000,1.000
190545.328,189890.500,210416.656,202913.078,193296.281,184516.875,192480.172,183324.453,0.045,1.002,0.077,-1.617,-0.519,-0.366,80.000,17255.000,1.000
190547.563,189851.875,210380.078,202892.781,193276.969,184465.203,192443.703,183325.172,0.045,1.001,0.076,-1.587,-0.549,-0.305,80.000,17256.000,1.000
190522.344,189816.297,210345.484,202866.313,193249.969,184412.188,192400.344,183293.969,0.047,1.000,0.076,-1.526,-0.580,-0.336,80.000,17257.000,1.000
190496.859,189814.422,210348.875,202854.516,193231.469,184405.656,192389.250,183257.406,0.045,1.002,0.078,-1.617,-0.580,-0.214,80.000,17258.000,1.000
190502.859,189841.250,210378.734,202871.953,193237.453,184427.469,192406.859,183257.484,0.046,1.000,0.075,-1.587,-0.580,-0.336,80.000,17259.000,1.000
190539.516,189871.734,210407.703,202900.563,193259.547,184447.313,192428.328,183287.078,0.047,1.001,0.075,-1.617,-0.671,-0.244,80.000,17260.000,1.000
190556.953,189853.578,210384.109,202889.125,193251.047,184403.781,192391.844,183290.391,0.047,1.002,0.075,-1.495,-0.641,-0.244,80.000,17261.000,1.000
190543.531,189826.766,210356.391,202865.609,193233.875,184371.141,192361.172,183265.453,0.049,1.002,0.073,-1.526,-0.580,-0.214,80.000,17262.000,1.000
190519.219,189830.063,210360.234,202859.703,193227.359,184397.516,192375.391,183246.141,0.049,1.002,0.073,-1.495,-0.580,-0.183,80.000,17263.000,1.000
190525.391,189860.469,210386.781,202879.281,193238.969,184445.625,192403.922,183257.406,0.048,1.001,0.074,-1.556,-0.641,-0.122,80.000,17264.000,1.000
190545.328,189883.438,210400.469,202896.094,193257.578,184482.547,192433.594,183284.766,0.046,1.000,0.074,-1.404,-0.610,-0.183,80.000,17265.000,1.000
190539.328,189854.469,210360.594,202875.969,193245.500,184454.109,192414.547,183291.563,0.048,1.001,0.074,-1.404,-0.580,-0.275,80.000,17266.000,1.000
190502.141,189804.859,210311.156,202834.406,193210.188,184412.000,192367.531,183254.891,0.046,1.001,0.073,-1.434,-0.671,-0.305,80.000,17267.000,1.000
190477.016,189805.219,210315.078,202830.109,193198.563,184423.891,192363.688,183223.781,0.045,1.001,0.077,-1.465,-0.549,-0.366,80.000,17268.000,1.000
190490.156,189843.656,210357.188,202863.906,193226.188,184477.719,192408.656,183246.766,0.045,0.999,0.079,-1.495,-0.488,-0.488,80.000,17269.000,1.000
190523.156,189869.047,210383.563,202888.844,193253.016,184507.484,192435.750,183275.188,0.045,1.000,0.078,-1.434,-0.519,-0.427,80.000,17270.000,1.000
190536.031,189850.453,210362.375,202878.844,193256.234,184481.203,192422.063,183288.250,0.046,1.001,0.076,-1.434,-0.488,-0.488,80.000,17271.000,1.000
190512.063,189818.625,210331.000,202853.891,193242.734,184447.313,192399.266,183271.531,0.047,1.001,0.076,-1.495,-0.488,-0.641,80.000,17272.000,1.000
190490.250,189821.125,210337.969,202850.859,193237.094,184463.141,192413.750,183254.719,0.049,1.002,0.075,-1.495,-0.458,-0.610,80.000,17273.000,1.000
190501.781,189853.313,210370.781,202871.688,193252.563,184497.031,192447.281,183273.234,0.050,1.001,0.075,-1.434,-0.397,-0.458,80.000,17274.000,1.000
190537.984,189875.938,210396.719,202898.781,193277.156,184517.953,192475.891,183313.281,0.050,1.000,0.075,-1.465,-0.397,-0.366,80.000,17275.000,1.000
190553.375,189856.359,210376.328,202893.594,193274.469,184479.328,192455.406,183329.109,0.049,0.998,0.074,-1.465,-0.275,-0.458,80.000,17276.000,1.000
190521.891,189814.156,210334.656,202854.969,193241.219,184421.922,192403.922,183291.375,0.048,1.001,0.074,-1.404,-0.214,-0.488,80.000,17277.000,1.000
190507.859,189823.813,210350.125,202858.719,193239.250,184432.563,192412.047,183275.547,0.047,0.998,0.073,-1.312,-0.244,-0.427,80.000,17278.000,1.000
190528.250,189865.656,210393.844,202892.344,193262.766,184472.359,192447.719,183291.469,0.048,0.999,0.072,-1.373,-0.092,-0.519,80.000,17279.000,1.000
190552.297,189883.078,210411.469,202906.906,193275.906,184480.938,192460.234,183308.719,0.045,0.997,0.074,-1.343,-0.061,-0.366,80.000,17280.000,1.000
190558.906,189858.500,210385.625,202892.422,193267.594,184435.250,192426.172,183309.703,0.046,0.998,0.074,-1.312,-0.092,-0.427,80.000,17281.000,1.000
190540.500,189832.391,210358.094,202866.406,193250.328,184398.328,192392.563,183278.141,0.043,0.998,0.070,-1.251,-0.122,-0.488,80.000,17282.000,1.000
190529.766,189847.141,210375.344,202871.688,193249.344,184415.125,192400.609,183255.609,0.042,1.000,0.070,-1.190,-0.092,-0.488,80.000,17283.000,1.000
190538.172,189875.031,210405.391,202890.734,193257.656,184435.344,192416.250,183261.609,0.042,1.000,0.072,-1.312,-0.031,-0.549,80.000,17284.000,1.000
190563.109,189892.734,210420.938,202905.750,193271.781,184448.656,192431.547,183283.156,0.043,1.000,0.074,-1.190,-0.122,-0.519,80.000,17285.000,1.000
190575.906,189871.641,210395.906,202897.438,193268.922,184417.813,192410.078,183292.719,0.042,1.001,0.072,-1.434,-0.214,-0.549,80.000,17286.000,1.000
190550.688,189833.109,210357.547,202866.313,193240.766,184367.922,192365.203,183261.250,0.042,1.003,0.074,-1.434,-0.214,-0.580,80.000,17287.000,1.000
190529.500,189837.313,210364.797,202864.266,193230.922,184382.047,192363.406,183234.875,0.044,1.001,0.072,-1.434,-0.214,-0.519,80.000,17288.000,1.000
190539.156,189868.516,210396.266,202885.094,193242.469,184420.938,192387.906,183242.109,0.045,1.001,0.072,-1.434,-0.305,-0.488,80.000,17289.000,1.000
190571.703,189901.234,210424.344,202913.078,193267.594,184457.250,192423.406,183275.734,0.045,1.001,0.074,-1.495,-0.305,-0.427,80.000,17290.000,1.000
190575.453,189874.766,210394.391,202897.344,193252.391,184416.031,192382.094,183271.891,0.046,1.001,0.073,-1.495,-0.305,-0.458,80.000,17291.000,1.000
190548.547,189832.844,210354.328,202864.438,193219.750,184371.406,192330.250,183237.641,0.045,1.001,0.073,-1.434,-0.244,-0.458,80.000,17292.000,1.000
190520.375,189831.406,210352.641,202853.984,193205.719,184391.703,192337.844,183211.984,0.045,1.004,0.074,-1.617,-0.305,-0.427,80.000,17293.000,1.000
190527.891,189865.922,210385.625,202881.703,193228.422,184449.547,192387.469,183239.438,0.043,1.004,0.073,-1.617,-0.397,-0.427,80.000,17294.000,1.000
190550.859,189890.500,210403.500,202900.031,193253.109,184485.313,192421.531,183277.875,0.042,1.005,0.074,-1.740,-0.336,-0.580,80.000,17295.000,1.000
190550.688,189863.859,210370.969,202883.031,193250.688,184464.391,192412.406,183294.422,0.042,1.004,0.076,-1.770,-0.397,-0.549,80.000,17296.000,1.000
190512.688,189814.063,210324.031,202845.047,193224.844,184424.250,192385.234,183276.000,0.043,1.005,0.074,-1.892,-0.458,-0.610,80.000,17297.000,1.000
190489.359,189819.781,210331.891,202842.000,193223.781,184445.625,192404.000,183262.938,0.041,1.004,0.076,-2.014,-0.580,-0.549,80.000,17298.000,1.000
190500.438,189848.844,210367.297,202870.344,193247.203,184491.125,192443.875,183283.953,0.041,1.004,0.077,-2.136,-0.488,-0.488,80.000,17299.000,1.000
190527.359,189868.781,210384.016,202888.406,193267.141,184509.016,192464.625,183313.453,0.043,1.004,0.076,-2.197,-0.519,-0.610,80.000,17300.000,1.000
190531.016,189844.469,210353.078,202871.688,193260.703,184473.156,192442.813,183320.344,0.043,1.004,0.075,-2.228,-0.610,-0.519,80.000,17301.000,1.000
190517.250,189818.891,210328.234,202851.750,193248.984,184446.250,192422.688,183300.672,0.044,1.002,0.075,-2.228,-0.519,-0.519,80.000,17302.000,1.000
190506.703,189830.781,210344.766,202858.453,193248.813,184463.953,192435.031,183282.875,0.045,1.002,0.075,-2.258,-0.580,-0.397,80.000,17303.000,1.000
190517.609,189862.156,210379.906,202876.781,193261.422,184497.031,192460.516,183287.266,0.045,1.003,0.074,-2.258,-0.793,-0.366,80.000,17304.000,1.000
190546.484,189884.609,210401.891,202895.203,193274.922,184506.063,192467.219,183304.781,0.045,1.002,0.072,-2.228,-0.641,-0.275,80.000,17305.000,1.000
190555.688,189863.859,210378.297,202883.938,193265.531,184464.031,192431.906,183300.766,0.045,1.001,0.072,-2.258,-0.641,-0.244,80.000,17306.000,1.000
190529.938,189824.078,210341.734,202853.719,193237.453,184416.203,192391.125,183263.844,0.045,1.000,0.075,-2.197,-0.732,-0.122,80.000,17307.000,1.000
190519.125,189835.156,210358.797,202860.953,193236.656,184432.922,192405.250,183248.281,0.046,0.999,0.072,-2.228,-0.793,-0.122,80.000,17308.000,1.000
190539.781,189874.328,210398.594,202892.422,193255.063,184468.516,192435.203,183261.516,0.046,0.998,0.073,-2.228,-0.732,0.000,80.000,17309.000,1.000
190557.844,189882.375,210406.188,202898.063,193257.750,184464.391,192429.125,183271.344,0.046,0.999,0.071,-2.258,-0.702,0.031,80.000,17310.000,1.000
190564.813,189859.578,210378.031,202881.969,193245.953,184418.078,192391.047,183275.109,0.046,0.997,0.073,-2.197,-0.519,0.031,80.000,17311.000,1.000
190539.781,189825.422,210343.156,202853.359,193222.250,184378.125,192359.844,183250.516,0.047,0.999,0.076,-2.228,-0.580,0.153,80.000,17312.000,1.000
190522.344,189831.859,210355.313,202853.531,193218.063,184394.031,192368.688,183233.344,0.048,0.999,0.075,-2.197,-0.580,0.214,80.000,17313.000,1.000
190539.422,189872.094,210395.906,202883.031,193240.766,184443.109,192412.141,183251.859,0.047,0.996,0.077,-2.228,-0.427,0.183,80.000,17314.000,1.000
190565.625,189895.063,210412.813,202899.844,193258.109,184461.625,192428.500,183276.266,0.047,0.997,0.077,-2.045,-0.549,0.153,80.000,17315.000,1.000
190569.547,189867.172,210382.313,202886.531,193246.313,184407.359,192385.047,183285.031,0.048,0.996,0.077,-1.953,-0.427,0.214,80.000,17316.000,1.000
190534.688,189823.000,210336.453,202847.094,193218.234,184366.672,192357.328,183260.703,0.048,0.997,0.078,-1.862,-0.458,0.153,80.000,17317.000,1.000
190512.781,189827.203,210342.797,202846.469,193218.141,184401.547,192382.906,183251.766,0.050,0.997,0.078,-1.953,-0.427,-0.031,80.000,17318.000,1.000
190520.109,189860.109,210374.984,202873.391,193239.250,184451.078,192418.125,183275.281,0.047,0.998,0.077,-1.953,-0.275,-0.031,80.000,17319.000,1.000
190537.000,189877.906,210389.203,202890.016,193261.156,184480.047,192448.000,183313.906,0.047,0.997,0.079,-1.953,-0.183,-0.122,80.000,17320.000,1.000
190536.922,189853.406,210358.359,202875.531,193258.906,184457.156,192434.938,183329.641,0.045,1.001,0.076,-1.923,0.000,-0.122,80.000,17321.000,1.000
190503.750,189808.875,210316.516,202840.125,193234.781,184425.688,192401.234,183298.625,0.048,1.000,0.074,-1.892,-0.031,-0.244,80.000,17322.000,1.000
190484.969,189815.141,210327.688,202840.922,193236.109,184453.406,192422.156,183287.000,0.049,1.001,0.075,-1.831,-0.092,-0.214,80.000,17323.000,1.000
190500.625,189851.438,210365.594,202870.078,193258.906,184507.047,192466.328,183305.500,0.049,1.001,0.075,-1.862,-0.092,-0.275,80.000,17324.000,1.000
190530.656,189876.297,210388.391,202894.219,193280.641,184532.703,192491.359,183333.313,0.049,1.001,0.078,-1.892,0.061,-0.336,80.000,17325.000,1.000
190539.953,189853.219,210363.813,202883.219,193274.922,184494.531,192460.516,183335.094,0.050,0.999,0.076,-1.953,0.122,-0.397,80.000,17326.000,1.000
190520.281,189824.516,210336.719,202858.719,193258.906,184459.750,192432.344,183310.516,0.050,1.000,0.076,-1.923,0.122,-0.336,80.000,17327.000,1.000
190502.313,189832.750,210349.594,202858.906,193253.906,184469.938,192435.391,183287.984,0.049,1.000,0.079,-1.923,0.183,-0.397,80.000,17328.000,1.000
190512.516,189859.391,210382.500,202882.594,193267.313,184504.453,192462.469,183296.297,0.049,1.002,0.079,-1.892,0.214,-0.366,80.000,17329.000,1.000
190544.875,189884.875,210404.578,202903.953,193282.063,184514.734,192475.172,183316.594,0.047,1.003,0.077,-1.892,0.183,-0.336,80.000,17330.000,1.000
190558.563,189869.766,210383.563,202894.297,193276.531,184474.766,192452.641,183327.313,0.048,1.003,0.078,-1.862,0.153,-0.397,80.000,17331.000,1.000
190530.844,189823.891,210344.406,202860.781,193245.766,184425.141,192404.547,183286.453,0.047,1.002,0.078,-1.892,0.092,-0.397,80.000,17332.000,1.000
190516.266,189834.094,210355.500,202856.125,193235.406,184428.813,192393.906,183246.141,0.046,1.001,0.078,-1.953,0.122,-0.305,80.000,17333.000,1.000
190542.016,189879.234,210401.984,202890.641,193261.781,184472.266,192429.031,183258.922,0.046,1.003,0.079,-1.984,0.092,-0.366,80.000,17334.000,1.000
190574.734,189906.516,210426.578,202909.063,193282.969,184490.500,192448.969,183283.516,0.045,1.002,0.079,-1.831,0.122,-0.305,80.000,17335.000,1.000
190584.125,189883.531,210400.563,202890.906,193273.313,184445.438,192413.750,183287.797,0.045,1.000,0.074,-1.892,0.031,-0.336,80.000,17336.000,1.000
190565.969,189855.375,210373.469,202865.422,193257.750,184408.422,192387.375,183270.094,0.043,1.001,0.077,-1.892,0.000,-0.275,80.000,17337.000,1.000
190548.453,189861.719,210385.172,202866.313,193251.672,184410.578,192382.453,183248.469,0.042,1.000,0.078,-1.831,-0.153,-0.244,80.000,17338.000,1.000
190561.141,189895.688,210420.766,202888.672,193266.516,184447.234,192409.906,183253.281,0.042,1.002,0.077,-1.862,-0.153,-0.275,80.000,17339.000,1.000
190579.391,189906.422,210429.344,202899.844,193272.859,184446.875,192417.594,183272.781,0.042,1.002,0.074,-1.770,-0.275,-0.305,80.000,17340.000,1.000
190587.797,189881.031,210401.719,202892.781,193265.703,184409.859,192397.297,183286.094,0.042,1.000,0.076,-1.831,-0.366,-0.397,80.000,17341.000,1.000
190553.188,189838.828,210356.563,202857.828,193233.969,184360.953,192357.688,183256.688,0.044,1.001,0.078,-1.831,-0.427,-0.336,80.000,17342.000,1.000
190521.625,189830.328,210352.641,202848.438,193221.719,184378.031,192368.156,183242.109,0.044,1.001,0.079,-1.831,-0.519,-0.397,80.000,17343.000,1.000
190518.328,189851.344,210374.813,202866.313,193232.813,184425.234,192402.391,183261.688,0.042,1.001,0.076,-1.770,-0.610,-0.458,80.000,17344.000,1.000
190535.844,189866.813,210386.609,202884.016,193251.578,184459.391,192432.609,183297.453,0.045,1.001,0.078,-1.740,-0.610,-0.458,80.000,17345.000,1.000
190542.641,189848.656,210362.828,202878.219,193256.672,184448.031,192430.922,183325.891,0.044,1.001,0.078,-1.801,-0.671,-0.458,80.000,17346.000,1.000
190517.609,189815.141,210327.594,202852.109,193240.047,184423.094,192403.016,183307.922,0.045,1.000,0.078,-1.709,-0.732,-0.519,80.000,17347.000,1.000
190493.203,189816.922,210332.250,202847.094,193234.688,184449.547,192416.156,183286.734,0.044,1.001,0.076,-1.709,-0.763,-0.519,80.000,17348.000,1.000
190497.047,189841.063,210361.578,202866.141,193249.703,184494.172,192451.125,183299.609,0.044,1.003,0.076,-1.617,-0.824,-0.580,80.000,17349.000,1.000
190526.813,189869.766,210386.156,202888.219,193274.109,184519.375,192475.625,183328.391,0.044,1.000,0.075,-1.587,-0.916,-0.549,80.000,17350.000,1.000
190548.000,189862.344,210374.453,202890.906,193284.578,184504.188,192471.688,183350.109,0.047,0.998,0.077,-1.617,-0.885,-0.427,80.000,17351.000,1.000
190524.766,189827.922,210340.203,202862.203,193261.156,184456.438,192424.750,183317.938,0.049,0.996,0.077,-1.556,-0.854,-0.366,80.000,17352.000,1.000
190510.984,189837.125,210357.016,202869.000,193262.578,184476.641,192440.219,183302.641,0.050,0.997,0.073,-1.404,-0.854,-0.397,80.000,17353.000,1.000
190525.031,189869.766,210393.219,202894.484,193277.953,184511.688,192465.063,183308.281,0.050,0.996,0.073,-1.373,-0.854,-0.397,80.000,17354.000,1.000
190553.375,189893.094,210413.516,202911.109,193292.000,184528.406,192478.484,183323.922,0.050,0.998,0.070,-1.343,-0.793,-0.397,80.000,17355.000,1.000
190570.172,189880.047,210394.125,202902.984,193287.609,184493.984,192452.734,183329.375,0.049,0.997,0.071,-1.343,-0.793,-0.366,80.000,17356.000,1.000
190550.953,189845.359,210361.672,202871.500,193266.516,184456.969,192419.203,183299.875,0.047,0.998,0.075,-1.251,-0.763,-0.305,80.000,17357.000,1.000
190536.109,189854.922,210373.828,202870.797,193262.406,184475.297,192428.594,183274.484,0.047,0.998,0.075,-1.190,-0.641,-0.427,80.000,17358.000,1.000
190545.141,189886.391,210404.938,202890.734,193271.609,184504.000,192445.578,183277.703,0.048,0.997,0.073,-1.221,-0.610,-0.580,80.000,17359.000,1.000
190570.453,189909.016,210423.719,202907.625,193289.313,184521.438,192466.500,183301.844,0.048,1.000,0.075,-1.160,-0.671,-0.519,80.000,17360.000,1.000
190584.844,189889.172,210401.984,202898.063,193289.047,184491.125,192446.734,183313.375,0.047,0.999,0.070,-1.221,-0.549,-0.488,80.000,17361.000,1.000
190562.750,189853.406,210366.844,202868.109,193265.438,184444.281,192407.047,183284.406,0.045,0.999,0.072,-1.251,-0.549,-0.671,80.000,17362.000,1.000
190544.516,189855.188,210375.172,202864.891,193255.781,184445.172,192403.469,183258.656,0.045,0.999,0.070,-1.221,-0.519,-0.610,80.000,17363.000,1.000
190556.406,189883.984,210410.219,202892.875,193272.063,184475.219,192435.391,183277.703,0.044,0.999,0.070,-1.221,-0.427,-0.580,80.000,17364.000,1.000
190582.516,189901.688,210426.313,202907.891,193286.188,184480.406,192447.813,183302.734,0.045,1.002,0.073,-1.251,-0.427,-0.549,80.000,17365.000,1.000
190591.719,189880.141,210401.984,202898.594,193279.828,184435.875,192417.594,183310.063,0.045,1.002,0.073,-1.434,-0.397,-0.641,80.000,17366.000,1.000
190562.047,189840.172,210362.297,202869.094,193251.938,184385.891,192375.844,183276.984,0.044,1.004,0.071,-1.495,-0.427,-0.671,80.000,17367.000,1.000
190536.828,189839.641,210363.813,202862.125,193240.938,184393.406,192381.297,183253.109,0.045,1.004,0.073,-1.556,-0.336,-0.732,80.000,17368.000,1.000
190543.094,189866.094,210392.234,202884.828,193255.063,184432.563,192413.219,183266.969,0.047,1.003,0.071,-1.740,-0.305,-0.793,80.000,17369.000,1.000
190563.656,189885.234,210408.156,202902.797,193271.875,184455.813,192436.375,183294.234,0.045,1.004,0.072,-1.740,-0.305,-0.702,80.000,17370.000,1.000
190568.391,189861.266,210379.813,202888.672,193266.422,184423.984,192415.453,183303.266,0.046,1.004,0.072,-1.801,-0.305,-0.671,80.000,17371.000,1.000
190540.766,189823.813,210341.641,202857.203,193244.438,184389.203,192386.656,183277.516,0.045,1.006,0.070,-1.831,-0.305,-0.641,80.000,17372.000,1.000
190520.828,189829.625,210350.750,202856.391,193244.078,184416.297,192407.484,183263.656,0.045,1.002,0.068,-1.953,-0.275,-0.580,80.000,17373.000,1.000
190533.078,189864.125,210386.438,202882.859,193265.531,184469.047,192451.922,183285.469,0.044,1.003,0.076,-2.136,-0.336,-0.458,80.000,17374.000,1.000
190549.438,189877.906,210399.125,202892.875,193273.844,184484.156,192461.672,183304.344,0.044,1.004,0.075,-2.136,-0.214,-0.305,80.000,17375.000,1.000
190554.266,189853.844,210372.297,202881.969,193264.281,184450.000,192432.172,183309.797,0.044,1.004,0.073,-2.228,-0.214,-0.305,80.000,17376.000,1.000
190525.203,189815.844,210331.719,202850.047,193233.344,184407.984,192384.609,183277.516,0.044,1.003,0.075,-2.319,-0.183,-0.244,80.000,17377.000,1.000
190508.047,189824.250,210343.250,202855.328,193228.688,184428.453,192390.859,183262.141,0.044,1.000,0.073,-2.380,-0.183,-0.244,80.000,17378.000,1.000
190509.469,189847.234,210367.125,202872.406,193238.531,184472.000,192426.000,183273.047,0.044,1.000,0.072,-2.441,-0.275,-0.153,80.000,17379.000,1.000
190537.984,189870.563,210385.625,202890.734,193259.813,184501.859,192455.594,183307.469,0.042,0.999,0.073,-2.411,-0.275,-0.122,80.000,17380.000,1.000
190552.750,189856.078,210367.828,202883.578,193266.250,184482.906,192451.297,183329.547,0.044,0.999,0.075,-2.380,-0.336,-0.092,80.000,17381.000,1.000
190533.875,189830.609,210338.781,202861.672,193251.766,184450.453,192424.031,183309.531,0.045,0.999,0.074,-2.380,-0.488,-0.031,80.000,17382.000,1.000
190504.828,189823.188,210335.297,202850.500,193234.500,184446.250,192407.313,183276.797,0.043,0.999,0.075,-2.441,-0.366,-0.031,80.000,17383.000,1.000
190520.469,189854.469,210373.906,202879.547,193259.813,184493.000,192455.141,183304.078,0.044,1.000,0.075,-2.441,-0.366,-0.031,80.000,17384.000,1.000
190547.563,189876.922,210395.016,202899.125,193283.500,184518.938,192485.813,183337.516,0.045,1.002,0.074,-2.502,-0.336,0.000,80.000,17385.000,1.000
190557.484,189856.797,210370.516,202887.063,193280.734,184483.797,192459.969,183345.469,0.045,1.001,0.074,-2.502,-0.275,0.031,80.000,17386.000,1.000
190535.047,189826.125,210339.047,202858.453,193262.578,184446.156,192427.344,183315.422,0.044,0.999,0.075,-2.472,-0.275,0.092,80.000,17387.000,1.000
190531.734,189847.500,210363.094,202866.500,193270.266,184469.484,192442.625,183297.359,0.045,1.000,0.074,-2.441,-0.275,0.092,80.000,17388.000,1.000
190539.516,189876.203,210394.563,202885.000,193281.891,184501.766,192469.453,183299.609,0.047,1.000,0.078,-2.441,-0.275,-0.061,80.000,17389.000,1.000
190569.109,189904.719,210420.500,202906.016,193300.313,184516.438,192482.141,183315.063,0.049,0.999,0.075,-2.441,-0.336,-0.122,80.000,17390.000,1.000
190587.438,189894.703,210404.672,202898.156,193300.672,184484.422,192455.688,183315.875,0.048,0.999,0.075,-2.319,-0.275,-0.183,80.000,17391.000,1.000
190563.469,189858.766,210370.250,202867.391,193277.953,184444.453,192421.625,183282.172,0.047,1.000,0.076,-2.350,-0.305,-0.275,80.000,17392.000,1.000
190542.813,189864.047,210379.375,202862.563,193268.844,184450.719,192421.625,183251.500,0.045,1.000,0.076,-2.380,-0.305,-0.366,80.000,17393.000,1.000
190565.969,189903.203,210425.328,202897.250,193291.375,184492.563,192453.984,183266.156,0.046,1.001,0.076,-2.350,-0.275,-0.397,80.000,17394.000,1.000
190597.531,189926.813,210447.234,202917.109,193305.578,184500.250,192462.469,183283.328,0.045,0.999,0.076,-2.350,-0.275,-0.427,80.000,17395.000,1.000
190611.750,189907.313,210424.781,202912.094,193302.547,184461.984,192441.281,183296.734,0.048,0.999,0.077,-2.319,-0.366,-0.397,80.000,17396.000,1.000
190586.453,189869.500,210388.750,202887.516,193283.234,184422.109,192414.109,183281.453,0.048,0.998,0.079,-2.197,-0.244,-0.549,80.000,17397.000,1.000
190566.875,189872.797,210397.344,202890.375,193281.531,184443.828,192430.469,183274.391,0.046,0.999,0.082,-2.106,-0.183,-0.519,80.000,17398.000,1.000
190572.594,189903.469,210427.922,202916.031,193297.984,184490.063,192466.406,183297.094,0.046,0.999,0.077,-2.045,-0.214,-0.519,80.000,17399.000,1.000
190584.750,189919.031,210435.688,202930.609,193310.141,184507.578,192480.891,183330.625,0.047,1.000,0.079,-2.106,-0.214,-0.427,80.000,17400.000,1.000
190578.047,189888.719,210397.703,202909.859,193297.891,184478.078,192452.828,183337.156,0.048,1.001,0.078,-2.045,-0.214,-0.458,80.000,17401.000,1.000
190545.406,189850.359,210356.656,202875.891,193274.031,184446.516,192421.625,183316.141,0.047,1.001,0.079,-2.045,-0.244,-0.549,80.000,17402.000,1.000
190516.000,189849.563,210357.734,202867.219,193264.813,184469.047,192433.156,183299.063,0.044,1.000,0.078,-1.953,-0.153,-0.519,80.000,17403.000,1.000
190520.828,189877.906,210388.313,202891.000,193280.453,184514.906,192469.359,183317.031,0.044,1.002,0.075,-1.953,-0.153,-0.610,80.000,17404.000,1.000
190542.281,189898.641,210404.938,202907.172,193301.031,184544.500,192500.750,183348.156,0.045,1.000,0.076,-1.953,-0.031,-0.641,80.000,17405.000,1.000
190546.313,189873.078,210373.906,202888.672,193289.219,184502.391,192456.391,183349.406,0.046,1.000,0.077,-1.923,-0.153,-0.580,80.000,17406.000,1.000
190520.016,189837.391,210335.828,202857.641,193264.016,184465.641,192422.688,183321.594,0.044,1.001,0.077,-1.892,-0.183,-0.702,80.000,17407.000,1.000
190504.109,189843.828,210346.906,202861.578,193260.969,184485.766,192435.563,183301.125,0.044,1.000,0.080,-1.862,-0.305,-0.641,80.000,17408.000,1.000
190515.188,189869.859,210377.672,202881.344,193272.328,184524.750,192465.063,183306.578,0.043,1.000,0.078,-1.923,-0.366,-0.610,80.000,17409.000,1.000
190547.828,189892.297,210399.484,202899.766,193287.875,184543.438,192480.813,183330.891,0.043,0.998,0.078,-1.831,-0.427,-0.549,80.000,17410.000,1.000
190549.875,189864.750,210367.469,202883.672,193274.734,184505.516,192454.438,183332.594,0.043,1.000,0.076,-1.862,-0.519,-0.549,80.000,17411.000,1.000
190520.469,189823.719,210325.094,202846.297,193243.000,184456.625,192413.031,183296.203,0.042,1.001,0.076,-1.862,-0.488,-0.336,80.000,17412.000,1.000
190502.047,189828.281,210333.953,202842.000,193236.031,184463.688,192416.438,183270.813,0.042,1.002,0.080,-1.923,-0.610,-0.458,80.000,17413.000,1.000
190514.563,189858.766,210370.781,202868.906,193254.531,184495.328,192446.297,183282.875,0.041,1.002,0.077,-1.862,-0.580,-0.458,80.000,17414.000,1.000
190541.297,189883.797,210393.313,202890.641,193274.297,184507.047,192461.141,183304.781,0.042,1.003,0.077,-1.923,-0.549,-0.458,80.000,17415.000,1.000
190552.469,189866.281,210371.328,202879.109,193270.625,184467.891,192434.578,183309.438,0.043,1.002,0.080,-1.740,-0.610,-0.397,80.000,17416.000,1.000
190526.188,189827.563,210332.250,202843.797,193244.516,184413.875,192391.391,183279.672,0.045,1.002,0.079,-1.801,-0.641,-0.275,80.000,17417.000,1.000
190512.953,189838.203,210348.250,202850.234,193247.469,184430.422,192410.172,183269.203,0.044,1.001,0.078,-1.862,-0.671,-0.244,80.000,17418.000,1.000
190530.219,189877.719,210392.328,202884.109,193269.547,184468.781,192442.094,183285.031,0.043,1.001,0.076,-1.862,-0.671,-0.153,80.000,17419.000,1.000
190559.719,189899.266,210413.703,202903.422,193285.734,184477.719,192450.047,183303.453,0.042,1.000,0.075,-1.801,-0.793,-0.122,80.000,17420.000,1.000
190580.016,189887.375,210398.328,202901.375,193291.016,184450.453,192436.281,183324.188,0.044,1.001,0.075,-1.801,-0.702,-0.122,80.000,17421.000,1.000
190553.906,189850.453,210361.313,202869.719,193263.828,184406.734,192394.531,183289.313,0.043,0.997,0.077,-1.862,-0.671,-0.092,80.000,17422.000,1.000
190534.766,189850.719,210367.563,202866.766,193250.953,184414.781,192392.031,183262.594,0.043,0.998,0.076,-1.892,-0.732,-0.031,80.000,17423.000,1.000
190550.953,189887.375,210404.406,202896.000,193269.547,184463.688,192428.953,183279.672,0.043,0.998,0.077,-1.862,-0.702,-0.092,80.000,17424.000,1.000
190578.500,189908.297,210419.875,202914.156,193283.047,184484.063,192449.781,183305.594,0.043,0.999,0.079,-1.862,-0.671,-0.061,80.000,17425.000,1.000
190591.641,189882.281,210393.047,202907.625,193278.578,184463.141,192436.547,183323.031,0.046,0.999,0.076,-1.831,-0.641,-0.061,80.000,17426.000,1.000
190566.594,189846.422,210354.953,202876.328,193255.250,184431.406,192404.000,183298.531,0.048,1.001,0.077,-1.801,-0.702,-0.031,80.000,17427.000,1.000
190536.109,189846.609,210354.156,202867.844,193242.188,184444.188,192408.203,183274.484,0.048,1.000,0.074,-1.831,-0.488,0.000,80.000,17428.000,1.000
190544.969,189882.375,210389.297,202893.766,193264.641,184500.344,192453.719,183297.906,0.048,1.001,0.074,-1.923,-0.458,-0.092,80.000,17429.000,1.000
190564.094,189907.844,210406.719,202912.453,193287.703,184533.859,192487.953,183332.688,0.050,1.000,0.074,-1.770,-0.519,-0.061,80.000,17430.000,1.000
190569.109,189884.781,210379.281,202900.297,193280.734,184498.016,192453.891,183340.281,0.049,1.000,0.079,-1.709,-0.397,-0.092,80.000,17431.000,1.000
190542.188,189848.031,210343.781,202870.344,193261.328,184462.250,192425.188,183318.563,0.046,1.000,0.075,-1.831,-0.275,-0.092,80.000,17432.000,1.000
190515.375,189848.938,210348.344,202861.844,193256.141,184478.969,192433.859,183299.156,0.048,1.002,0.075,-1.831,-0.244,0.031,80.000,17433.000,1.000
190519.750,189877.000,210378.297,202882.063,193273.844,184520.719,192471.688,183312.563,0.047,1.003,0.075,-1.862,-0.122,0.061,80.000,17434.000,1.000
190545.234,189898.906,210397.422,202903.328,193293.250,184537.438,192490.188,183341.531,0.048,1.002,0.073,-1.862,-0.031,-0.031,80.000,17435.000,1.000
190551.047,189871.281,210366.406,202885.453,193283.047,184494.609,192457.375,183342.063,0.048,1.000,0.075,-1.923,-0.061,0.000,80.000,17436.000,1.000
190525.563,189834.891,210328.578,202849.250,193258.641,184450.266,192417.688,183309.172,0.049,1.001,0.076,-1.953,0.000,0.031,80.000,17437.000,1.000
190508.219,189837.672,210336.547,202847.094,193252.391,184459.844,192423.938,183287.266,0.048,1.000,0.078,-1.984,0.183,0.000,80.000,17438.000,1.000
190524.406,189870.031,210373.641,202871.594,193269.641,184500.969,192457.734,183296.922,0.048,1.000,0.079,-2.045,0.153,-0.061,80.000,17439.000,1.000
190552.203,189894.344,210393.938,202889.297,193285.641,184516.875,192479.203,183321.500,0.046,1.000,0.077,-1.984,0.275,-0.153,80.000,17440.000,1.000
190567.234,189871.469,210373.281,202884.016,193281.266,184480.938,192455.234,183334.031,0.048,1.001,0.075,-1.984,0.305,-0.122,80.000,17441.000,1.000
190547.563,189835.078,210341.375,202853.094,193253.906,184431.938,192408.203,183296.203,0.046,1.002,0.074,-1.923,0.275,-0.153,80.000,17442.000,1.000
190533.969,189842.672,210357.281,202851.391,193245.141,184435.703,192399.719,183261.156,0.045,1.002,0.077,-1.953,0.366,-0.214,80.000,17443.000,1.000
190553.375,189885.141,210405.109,202886.969,193270.719,184483.344,192443.172,183283.688,0.044,1.001,0.076,-1.984,0.305,-0.214,80.000,17444.000,1.000
190586.547,189916.172,210433.281,202916.391,193294.938,184504.813,192464.719,183318.109,0.045,1.001,0.078,-2.136,0.336,-0.183,80.000,17445.000,1.000
190594.672,189894.703,210407.797,202904.938,193288.859,184468.328,192434.484,183323.109,0.046,0.999,0.075,-2.075,0.305,-0.153,80.000,17446.000,1.000
190568.844,189862.344,210371.594,202877.406,193264.188,184425.328,192394.531,183293.172,0.044,1.000,0.076,-2.106,0.305,-0.214,80.000,17447.000,1.000
190544.969,189865.563,210375.969,202873.469,193254.797,184439.984,192400.703,183269.922,0.044,1.000,0.074,-2.136,0.214,-0.183,80.000,17448.000,1.000
190551.672,189893.641,210404.219,202894.578,193266.516,184475.922,192429.578,183282.875,0.043,1.000,0.074,-2.045,0.305,-0.214,80.000,17449.000,1.000
190578.500,189914.563,210422.469,202915.406,193285.203,184503.016,192456.219,183312.391,0.045,0.999,0.074,-2.075,0.275,-0.244,80.000,17450.000,1.000
190589.125,189893.359,210399.031,202909.859,193283.766,184482.453,192444.594,183329.016,0.044,1.001,0.076,-2.136,0.244,-0.214,80.000,17451.000,1.000
190564.094,189857.156,210358.531,202877.578,193257.750,184440.703,192407.672,183302.016,0.046,1.002,0.074,-2.075,0.061,-0.244,80.000,17452.000,1.000
190541.297,189858.766,210362.469,202872.672,193250.422,184459.391,192419.031,183281.984,0.046,1.001,0.077,-2.075,0.092,-0.214,80.000,17453.000,1.000
190544.609,189880.047,210386.875,202891.438,193262.125,184500.969,192451.219,183291.563,0.045,1.002,0.075,-2.014,0.031,-0.122,80.000,17454.000,1.000
190564.984,189896.672,210401.453,202910.125,193278.500,184520.453,192473.203,183320.344,0.045,1.002,0.076,-2.045,-0.031,-0.092,80.000,17455.000,1.000
190569.734,189870.297,210371.953,202896.891,193272.688,184486.297,192451.219,183332.234,0.043,1.002,0.077,-1.923,0.000,-0.122,80.000,17456.000,1.000
190537.094,189825.781,210326.891,202860.328,193244.781,184439.359,192414.281,183305.234,0.045,0.999,0.081,-1.923,-0.092,-0.031,80.000,17457.000,1.000
190514.922,189827.922,210330.734,202855.141,193238.078,184458.406,192427.781,183287.531,0.044,1.000,0.078,-2.014,-0.061,-0.122,80.000,17458.000,1.000
190526.094,189861.453,210365.953,202883.125,193258.016,184505.250,192468.469,183304.781,0.046,1.002,0.076,-1.984,-0.214,-0.092,80.000,17459.000,1.000
190546.484,189882.016,210381.609,202898.422,193275.359,184527.156,192491.625,183330.266,0.045,0.999,0.078,-1.892,-0.214,-0.092,80.000,17460.000,1.000
190537.000,189844.109,210337.875,202866.859,193254.359,184483.172,192457.734,183324.375,0.045,1.001,0.079,-1.892,-0.214,0.031,80.000,17461.000,1.000
190509.109,189802.703,210296.313,202829.484,193223.422,184433.016,192413.031,183289.859,0.044,1.003,0.077,-1.801,-0.275,-0.061,80.000,17462.000,1.000
190488.547,189809.766,210303.641,202822.781,193209.109,184435.703,192405.438,183258.828,0.046,1.002,0.081,-1.953,-0.336,-0.031,80.000,17463.000,1.000
190496.156,189837.484,210334.656,202838.875,193214.922,184464.125,192424.922,183262.672,0.044,1.002,0.082,-1.862,-0.305,0.000,80.000,17464.000,1.000
190533.250,189867.172,210362.297,202863.375,193234.234,184485.141,192448.172,183292.453,0.045,1.000,0.078,-1.862,-0.214,0.000,80.000,17465.000,1.000
190552.125,189851.250,210343.422,202854.422,193228.516,184450.094,192417.766,183298.266,0.045,1.002,0.076,-1.831,-0.336,0.061,80.000,17466.000,1.000
190531.203,189817.813,210311.953,202827.516,193205.891,184406.906,192379.063,183273.859,0.047,1.002,0.077,-1.892,-0.244,0.092,80.000,17467.000,1.000
190517.703,189830.328,210330.469,202832.797,193207.859,184422.109,192385.313,183261.875,0.048,1.000,0.077,-1.862,-0.214,0.061,80.000,17468.000,1.000
190530.844,189862.250,210368.547,202859.875,193224.313,184450.000,192401.406,183266.875,0.045,0.998,0.078,-1.862,-0.336,0.122,80.000,17469.000,1.000
190569.016,189899.453,210403.328,202895.563,193258.469,184478.078,192435.391,183307.109,0.045,0.998,0.076,-1.770,-0.366,0.122,80.000,17470.000,1.000
190577.063,189877.984,210379.906,202885.000,193255.875,184441.781,192410.984,183319.094,0.046,0.997,0.076,-1.740,-0.305,0.061,80.000,17471.000,1.000
190545.500,189838.375,210340.203,202850.859,193233.438,184401.359,192380.047,183290.391,0.047,0.997,0.075,-1.709,-0.336,0.092,80.000,17472.000,1.000
190533.438,189854.109,210358.625,202857.734,193243.172,184431.500,192402.313,183276.531,0.047,0.997,0.079,-1.709,-0.336,-0.061,80.000,17473.000,1.000
190544.156,189888.719,210395.453,202887.594,193267.938,184480.938,192443.797,183289.313,0.048,0.998,0.077,-1.678,-0.336,-0.061,80.000,17474.000,1.000
190565.531,189908.125,210412.094,202901.813,193287.797,184509.281,192468.563,183311.500,0.046,0.999,0.077,-1.617,-0.427,-0.122,80.000,17475.000,1.000
190575.281,189890.422,210386.609,202888.406,193286.547,184485.578,192451.031,183318.828,0.050,1.000,0.077,-1.648,-0.336,-0.183,80.000,17476.000,1.000
190559.000,189863.141,210357.813,202867.656,193270.891,184449.906,192418.406,183298.000,0.051,1.000,0.081,-1.648,-0.366,-0.244,80.000,17477.000,1.000
190535.750,189862.438,210364.703,202864.984,193263.828,184462.875,192426.094,183275.547,0.049,1.000,0.078,-1.617,-0.366,-0.275,80.000,17478.000,1.000
190543.094,189892.297,210398.234,202889.750,193283.406,184509.094,192467.844,183294.422,0.051,1.000,0.079,-1.648,-0.427,-0.214,80.000,17479.000,1.000
190568.563,189910.172,210415.313,202909.500,193299.063,184525.375,192486.344,183321.688,0.052,1.001,0.078,-1.617,-0.336,-0.183,80.000,17480.000,1.000
190576.438,189884.156,210385.453,202895.203,193284.844,184480.938,192453.094,183324.016,0.052,1.001,0.076,-1.678,-0.244,-0.244,80.000,17481.000,1.000
190551.844,189844.281,210346.734,202864.531,193254.359,184435.078,192411.688,183293.969,0.052,0.999,0.078,-1.678,-0.275,-0.244,80.000,17482.000,1.000
190535.938,189848.031,210358.000,202864.531,193246.672,184446.250,192414.641,183277.250,0.053,1.002,0.077,-1.556,-0.183,-0.244,80.000,17483.000,1.000
190547.016,189876.563,210393.047,202891.625,193259.359,184482.906,192442.531,183286.188,0.049,0.999,0.076,-1.495,-0.031,-0.305,80.000,17484.000,1.000
190568.844,189891.313,210407.531,202910.578,193270.531,184493.000,192453.891,183311.938,0.050,0.997,0.074,-1.495,-0.031,-0.305,80.000,17485.000,1.000
190573.844,189864.750,210377.125,202896.266,193260.344,184454.297,192428.688,183324.188,0.049,0.997,0.075,-1.556,-0.031,-0.336,80.000,17486.000,1.000
190554.703,189835.250,210344.953,202872.484,193238.797,184414.500,192392.109,183302.641,0.047,0.998,0.075,-1.434,0.031,-0.366,80.000,17487.000,1.000
190533.875,189836.766,210349.141,202866.234,193229.766,184425.953,192397.203,183281.984,0.047,1.000,0.075,-1.312,0.000,-0.397,80.000,17488.000,1.000
190535.750,189857.250,210369.531,202876.516,193233.250,184455.359,192417.594,183286.453,0.047,1.000,0.076,-1.373,0.092,-0.427,80.000,17489.000,1.000
190556.766,189877.984,210381.688,202888.938,193247.109,184478.703,192440.391,183314.000,0.046,1.000,0.077,-1.373,0.031,-0.488,80.000,17490.000,1.000
190563.469,189860.281,210354.609,202877.313,193248.547,184457.875,192427.516,183328.922,0.043,1.002,0.074,-1.404,-0.031,-0.671,80.000,17491.000,1.000
190533.781,189824.344,210316.969,202843.703,193230.922,184420.047,192397.656,183307.469,0.044,1.001,0.075,-1.404,0.000,-0.702,80.000,17492.000,1.000
190521.453,189837.938,210333.859,202840.844,193235.578,184447.141,192417.234,183290.219,0.044,1.000,0.079,-1.404,-0.122,-0.580,80.000,17493.000,1.000
190536.922,189877.453,210373.016,202862.203,193256.594,184491.578,192450.313,183300.938,0.044,1.000,0.074,-1.434,-0.183,-0.580,80.000,17494.000,1.000
190560.344,189901.406,210391.266,202876.688,193276.609,184511.422,192470.250,183323.109,0.046,1.002,0.074,-1.404,-0.214,-0.519,80.000,17495.000,1.000
190568.844,189881.469,210365.594,202860.953,193275.000,184479.953,192444.688,183322.766,0.046,1.002,0.076,-1.312,-0.275,-0.580,80.000,17496.000,1.000
190547.469,189850.625,210331.531,202832.078,193256.141,184443.297,192410.625,183289.234,0.046,1.002,0.076,-1.434,-0.305,-0.641,80.000,17497.000,1.000
190537.188,189862.703,210348.703,202841.906,193260.438,184470.203,192433.156,183273.578,0.044,1.004,0.077,-1.526,-0.366,-0.580,80.000,17498.000,1.000
190552.469,189900.703,210390.094,202875.000,193282.703,184517.500,192472.484,183285.031,0.046,1.006,0.076,-1.526,-0.244,-0.488,80.000,17499.000,1.000
190590.297,189940.578,210427.203,202909.766,193315.688,184552.375,192507.984,183319.453,0.045,1.006,0.076,-1.678,-0.305,-0.488,80.000,17500.000,1.000
190595.844,189913.125,210398.594,202897.078,193306.297,184516.609,192479.734,183318.563,0.044,1.006,0.076,-1.770,-0.397,-0.519,80.000,17501.000,1.000
190560.250,189858.234,210345.750,202853.266,193265.266,184457.953,192424.203,183270.281,0.045,1.008,0.078,-1.862,-0.336,-0.458,80.000,17502.000,1.000
190536.656,189856.000,210349.953,202848.344,193254.172,184465.734,192428.141,183245.328,0.043,1.007,0.076,-2.075,-0.458,-0.549,80.000,17503.000,1.000
190552.828,189891.750,210390.984,202882.594,193274.297,184509.016,192461.578,183266.516,0.043,1.008,0.077,-2.197,-0.427,-0.549,80.000,17504.000,1.000
190569.109,189903.203,210401.266,202895.203,193277.156,184508.922,192461.766,183281.984,0.042,1.007,0.076,-2.258,-0.488,-0.580,80.000,17505.000,1.000
190577.859,189881.828,210376.500,202887.516,193268.031,184467.344,192429.844,183293.172,0.045,1.004,0.078,-2.350,-0.610,-0.702,80.000,17506.000,1.000
190555.875,189845.797,210342.797,202862.031,193243.625,184420.594,192392.734,183281.625,0.044,1.001,0.075,-2.380,-0.580,-0.580,80.000,17507.000,1.000
190531.828,189843.656,210348.344,202861.578,193233.172,184428.359,192397.031,183268.750,0.044,1.000,0.075,-2.380,-0.610,-0.610,80.000,17508.000,1.000
190529.859,189858.938,210371.234,202880.453,193235.313,184449.375,192409.016,183276.359,0.045,1.002,0.078,-2.380,-0.702,-0.641,80.000,17509.000,1.000
190560.609,189885.500,210395.734,202907.359,193256.594,184470.469,192433.594,183312.297,0.046,1.001,0.078,-2.350,-0.763,-0.580,80.000,17510.000,1.000
190569.547,189865.203,210367.297,202889.563,193247.203,184432.125,192408.563,183322.047,0.044,1.002,0.077,-2.380,-0.824,-0.488,80.000,17511.000,1.000
190553.641,189831.500,210335.563,202862.922,193226.734,184395.188,192373.063,183299.781,0.048,0.999,0.076,-2.350,-0.793,-0.488,80.000,17512.000,1.000
190540.219,189847.328,210351.656,202866.766,193232.531,184427.203,192395.328,183289.500,0.049,0.999,0.080,-2.258,-0.671,-0.305,80.000,17513.000,1.000
190539.250,189871.469,210375.797,202883.031,193246.391,184471.906,192434.484,183300.500,0.048,0.999,0.076,-2.228,-0.702,-0.214,80.000,17514.000,1.000
190559.891,189889.516,210389.656,202895.375,193262.406,184495.328,192455.766,183327.938,0.048,1.000,0.078,-2.319,-0.671,-0.244,80.000,17515.000,1.000
190582.344,189885.766,210377.125,202892.063,193272.328,184481.391,192445.047,183343.406,0.049,1.000,0.077,-2.289,-0.641,-0.153,80.000,17516.000,1.000
190550.328,189845.984,210333.766,202852.281,193248.719,184448.031,192417.594,183308.719,0.049,0.999,0.080,-2.258,-0.671,0.000,80.000,17517.000,1.000
190532.891,189855.813,210344.859,202850.234,193248.359,184471.188,192431.094,183283.953,0.049,0.999,0.079,-2.197,-0.641,0.000,80.000,17518.000,1.000
190543.531,189886.656,210380.172,202876.953,193267.406,184509.094,192459.797,183295.313,0.049,0.997,0.080,-2.136,-0.610,-0.031,80.000,17519.000,1.000
190566.063,189906.063,210398.406,202896.188,193285.641,184531.813,192485.000,183318.563,0.047,0.998,0.079,-2.106,-0.610,-0.061,80.000,17520.000,1.000
190578.047,189886.031,210373.563,202882.141,193279.563,184500.156,192464.172,183322.484,0.048,0.995,0.082,-2.075,-0.458,-0.031,80.000,17521.000,1.000
190565.438,189858.672,210344.594,202857.922,193259.359,184460.641,192432.531,183295.406,0.048,0.996,0.081,-2.045,-0.427,-0.092,80.000,17522.000,1.000
190548.813,189862.875,210353.078,202852.734,193247.922,184468.156,192429.219,183263.656,0.049,0.997,0.077,-1.984,-0.366,-0.153,80.000,17523.000,1.000
190555.688,189888.266,210384.828,202874.188,193254.625,184500.156,192448.172,183263.391,0.049,0.999,0.081,-1.953,-0.305,-0.061,80.000,17524.000,1.000
190577.422,189910.531,210403.500,202888.938,193265.344,184514.469,192460.953,183278.953,0.048,0.999,0.080,-1.953,-0.244,-0.153,80.000,17525.000,1.000
190579.563,189877.984,210369.797,202868.563,193245.594,184464.578,192421.172,183273.500,0.049,0.998,0.080,-1.801,-0.275,-0.153,80.000,17526.000,1.000
190559.359,189844.281,210336.266,202845.938,193221.281,184420.594,192382.375,183243.281,0.050,0.997,0.081,-1.862,-0.183,-0.092,80.000,17527.000,1.000
190539.063,189849.828,210345.656,202846.469,193214.391,184430.953,192385.594,183222.984,0.049,0.996,0.079,-1.831,-0.183,-0.214,80.000,17528.000,1.000
190543.531,189878.438,210376.859,202869.266,193228.063,184465.641,192413.484,183236.922,0.049,1.000,0.077,-1.862,-0.092,-0.305,80.000,17529.000,1.000
190566.328,189900.156,210395.641,202889.828,193249.891,184482.641,192435.203,183275.641,0.048,1.000,0.081,-1.923,-0.031,-0.336,80.000,17530.000,1.000
190578.500,189882.375,210374.188,202889.125,193253.109,184451.250,192421.078,183306.313,0.049,1.000,0.081,-1.892,-0.061,-0.427,80.000,17531.000,1.000
190553.094,189842.219,210336.188,202862.922,193230.219,184406.281,192383.078,183289.406,0.050,1.003,0.081,-2.014,0.031,-0.458,80.000,17532.000,1.000
190534.141,189846.516,210345.922,202860.953,193225.750,184419.609,192387.109,183269.922,0.049,1.002,0.079,-2.014,0.031,-0.549,80.000,17533.000,1.000
190545.859,189880.406,210385.984,202891.172,193249.609,184465.922,192428.859,183292.453,0.049,1.003,0.079,-2.014,0.122,-0.427,80.000,17534.000,1.000
190577.688,189911.250,210415.125,202919.781,193279.203,184499.078,192464.531,183330.359,0.049,1.004,0.077,-1.953,0.214,-0.458,80.000,17535.000,1.000
190584.938,189892.109,210390.984,202908.438,193275.984,184466.625,192433.156,183339.484,0.049,1.002,0.083,-1.953,0.153,-0.427,80.000,17536.000,1.000
190556.953,189850.359,210351.734,202874.641,193252.125,184419.250,192388.094,183311.406,0.046,1.002,0.085,-2.045,0.153,-0.305,80.000,17537.000,1.000
190529.047,189853.406,210355.938,202866.594,193248.719,184434.891,192398.734,183294.063,0.046,1.002,0.082,-2.197,0.153,-0.336,80.000,17538.000,1.000
190537.188,189887.109,210391.438,202893.328,193274.109,184494.891,192450.672,183312.828,0.046,1.000,0.081,-2.106,0.122,-0.427,80.000,17539.000,1.000
190572.406,189921.984,210419.688,202921.125,193306.031,184535.109,192491.266,183350.750,0.046,0.999,0.082,-1.923,0.061,-0.366,80.000,17540.000,1.000
190583.594,189906.516,210398.406,202911.563,193310.141,184514.641,192478.750,183363.344,0.045,0.998,0.084,-1.984,0.092,-0.397,80.000,17541.000,1.000
190546.656,189858.500,210349.781,202869.531,193275.984,184472.172,192436.453,183318.828,0.045,0.998,0.081,-1.892,0.092,-0.397,80.000,17542.000,1.000
190520.109,189853.844,210347.000,202853.359,193256.047,184474.859,192426.000,183279.031,0.043,0.999,0.082,-1.892,0.000,-0.397,80.000,17543.000,1.000
190526.453,189879.156,210375.797,202870.875,193265.797,184508.734,192457.563,183286.906,0.042,0.997,0.082,-1.862,0.031,-0.336,80.000,17544.000,1.000
190549.875,189895.063,210389.297,202885.453,193276.969,184526.000,192480.531,183306.750,0.044,0.999,0.081,-1.770,-0.031,-0.275,80.000,17545.000,1.000
190559.625,189874.594,210362.641,202873.297,193266.422,184485.938,192450.406,183309.891,0.044,0.999,0.081,-1.648,-0.092,-0.366,80.000,17546.000,1.000
190535.219,189831.672,210323.125,202840.484,193236.734,184437.125,192410.266,183278.594,0.042,0.999,0.080,-1.526,-0.183,-0.244,80.000,17547.000,1.000
190515.016,189827.031,210327.594,202835.203,193224.484,184442.938,192412.594,183253.016,0.042,1.001,0.081,-1.556,-0.214,-0.336,80.000,17548.000,1.000
190527.703,189862.969,210363.281,202859.344,193236.656,184476.906,192437.703,183260.000,0.043,1.001,0.081,-1.526,-0.397,-0.336,80.000,17549.000,1.000
190556.766,189889.516,210384.469,202875.969,193248.188,184487.828,192450.141,183276.625,0.044,1.001,0.081,-1.526,-0.610,-0.275,80.000,17550.000,1.000
190578.047,189877.984,210370.250,202873.203,193247.016,184455.359,192429.844,183290.578,0.043,1.001,0.078,-1.404,-0.488,-0.275,80.000,17551.000,1.000
190555.781,189840.797,210334.031,202845.047,193217.781,184400.734,192380.406,183255.969,0.042,1.000,0.079,-1.282,-0.580,-0.275,80.000,17552.000,1.000
190530.750,189834.625,210333.328,202837.266,193197.844,184395.375,192369.141,183222.625,0.041,1.001,0.080,-1.282,-0.641,-0.305,80.000,17553.000,1.000
190543.891,189869.859,210369.359,202861.766,193212.063,184432.922,192399.094,183240.141,0.043,1.003,0.079,-1.404,-0.702,-0.366,80.000,17554.000,1.000
190570.891,189896.234,210391.797,202884.297,193231.828,184452.141,192417.766,183273.672,0.044,1.003,0.079,-1.312,-0.793,-0.336,80.000,17555.000,1.000
190579.297,189876.828,210367.391,202877.672,193233.609,184428.188,192403.922,183297.188,0.044,1.001,0.080,-1.160,-0.854,-0.275,80.000,17556.000,1.000
190545.594,189832.391,210323.938,202845.750,193209.922,184387.688,192368.234,183275.469,0.046,1.000,0.078,-1.190,-1.007,-0.214,80.000,17557.000,1.000
190518.141,189834.813,210330.906,202844.953,193207.422,184406.734,192377.266,183262.313,0.046,0.997,0.079,-1.190,-0.885,-0.244,80.000,17558.000,1.000
190529.406,189869.234,210368.734,202870.172,193232.188,184460.188,192414.469,183277.609,0.048,0.996,0.079,-1.190,-0.916,-0.305,80.000,17559.000,1.000
190561.141,189900.344,210397.781,202896.891,193264.016,184497.563,192448.797,183313.734,0.049,0.998,0.079,-1.099,-1.007,-0.305,80.000,17560.000,1.000
190575.719,189890.234,210380.531,202892.250,193271.969,184482.188,192440.844,183333.391,0.047,0.998,0.075,-0.916,-0.946,-0.336,80.000,17561.000,1.000
190548.266,189858.047,210343.422,202861.219,193255.156,184455.719,192419.031,183310.781,0.048,0.997,0.078,-0.793,-0.916,-0.275,80.000,17562.000,1.000
190524.672,189856.797,210346.563,202855.141,193250.953,184474.141,192430.563,183292.453,0.045,0.999,0.077,-0.671,-0.732,-0.305,80.000,17563.000,1.000
190527.266,189877.094,210370.969,202868.281,193258.469,184506.328,192453.891,183293.438,0.045,0.999,0.079,-0.702,-0.793,-0.366,80.000,17564.000,1.000
190555.609,189903.469,210392.063,202890.281,193279.563,184533.594,192479.281,183319.188,0.047,1.000,0.081,-0.732,-0.671,-0.305,80.000,17565.000,1.000
190564.359,189885.406,210368.813,202883.750,193278.766,184510.172,192467.578,183334.469,0.047,0.997,0.077,-0.641,-0.641,-0.275,80.000,17566.000,1.000
190540.766,189846.703,210332.078,202854.609,193254.438,184467.969,192432.250,183309.703,0.048,0.998,0.074,-0.671,-0.519,-0.336,80.000,17567.000,1.000
190513.672,189838.828,210331.719,202845.047,193237.906,184467.609,192427.344,183281.188,0.046,0.999,0.073,-0.641,-0.488,-0.336,80.000,17568.000,1.000
190522.969,189870.844,210365.234,202867.297,193251.672,184506.156,192455.141,183286.016,0.045,1.000,0.075,-0.671,-0.458,-0.397,80.000,17569.000,1.000
190544.703,189887.375,210380.078,202880.453,193262.938,184521.172,192468.281,183298.438,0.046,0.999,0.073,-0.702,-0.488,-0.549,80.000,17570.000,1.000
190560.797,189873.250,210362.203,202876.875,193263.391,184493.453,192456.219,183318.281,0.046,1.000,0.071,-0.763,-0.488,-0.641,80.000,17571.000,1.000
190534.422,189829.266,210320.453,202843.516,193231.375,184442.313,192412.234,183285.391,0.047,1.002,0.073,-0.824,-0.519,-0.549,80.000,17572.000,1.000
190506.875,189818.094,210315.703,202829.656,193209.734,184437.125,192405.438,183250.875,0.045,1.002,0.073,-0.946,-0.641,-0.671,80.000,17573.000,1.000
190519.125,189850.719,210350.484,202855.859,193224.219,184473.781,192442.188,183266.250,0.047,1.003,0.075,-0.946,-0.519,-0.671,80.000,17574.000,1.000
190548.094,189875.031,210374.000,202879.188,193241.656,184481.656,192452.281,183293.438,0.048,1.005,0.071,-1.038,-0.427,-0.702,80.000,17575.000,1.000
190559.531,189855.547,210350.125,202868.734,193235.219,184436.141,192421.969,183300.672,0.047,1.006,0.073,-1.160,-0.488,-0.763,80.000,17576.000,1.000
190532.453,189815.766,210309.266,202836.453,193207.953,184384.109,192379.500,183266.156,0.047,1.004,0.071,-1.312,-0.458,-0.641,80.000,17577.000,1.000
190511.531,189820.234,210317.047,202832.344,193199.547,184381.969,192372.797,183243.719,0.046,1.003,0.072,-1.556,-0.488,-0.641,80.000,17578.000,1.000
190527.625,189859.578,210359.250,202865.688,193224.219,184422.906,192409.813,183267.688,0.044,1.004,0.072,-1.678,-0.458,-0.580,80.000,17579.000,1.000
190551.141,189876.375,210375.078,202881.516,193240.406,184435.422,192422.063,183293.797,0.046,1.006,0.073,-1.709,-0.458,-0.580,80.000,17580.000,1.000
190560.516,189859.750,210352.094,202873.031,193239.688,184405.391,192395.953,183308.625,0.045,1.004,0.072,-1.923,-0.366,-0.458,80.000,17581.000,1.000
190534.594,189826.672,210316.063,202841.734,193222.438,184377.313,192368.328,183288.875,0.044,1.002,0.070,-1.984,-0.458,-0.397,80.000,17582.000,1.000
190512.781,189835.875,210325.094,202841.109,193223.063,184408.344,192384.688,183271.703,0.047,1.000,0.073,-1.953,-0.397,-0.366,80.000,17583.000,1.000
190519.844,189868.156,210360.406,202867.922,193247.469,184466.625,192428.688,183289.594,0.046,1.000,0.074,-2.075,-0.336,-0.366,80.000,17584.000,1.000
190548.984,189902.484,210389.203,202893.766,193280.375,184510.438,192468.828,183329.906,0.048,1.001,0.072,-2.075,-0.366,-0.305,80.000,17585.000,1.000
190560.516,189890.500,210370.250,202887.328,193287.344,184499.266,192466.672,183353.063,0.048,1.001,0.073,-2.136,-0.305,-0.305,80.000,17586.000,1.000
190531.828,189850.547,210329.125,202854.969,193264.094,184466.984,192436.813,183325.266,0.046,1.002,0.073,-2.228,-0.336,-0.244,80.000,17587.000,1.000
190510.000,189851.969,210331.625,202847.547,193254.000,184484.688,192440.125,183296.656,0.048,0.999,0.073,-2.228,-0.336,-0.275,80.000,17588.000,1.000
190516.891,189879.328,210360.063,202869.094,193265.703,184528.328,192469.359,183302.906,0.046,1.000,0.070,-2.289,-0.275,-0.275,80.000,17589.000,1.000
190545.141,189904.984,210381.422,202891.359,193286.359,184560.516,192502.000,183333.672,0.046,1.000,0.072,-2.380,-0.275,-0.214,80.000,17590.000,1.000
190548.266,189877.094,210348.344,202871.500,193271.156,184525.016,192474.094,183334.203,0.046,1.002,0.072,-2.380,-0.305,-0.122,80.000,17591.000,1.000
190519.391,189832.844,210302.656,202831.266,193236.734,184476.016,192426.984,183297.641,0.046,1.000,0.071,-2.350,-0.275,-0.092,80.000,17592.000,1.000
190497.766,189831.938,210308.203,202827.703,193225.469,184483.703,192429.578,183269.375,0.048,0.999,0.072,-2.411,-0.305,-0.122,80.000,17593.000,1.000
190498.203,189851.172,210332.969,202844.594,193228.969,184505.703,192447.813,183269.375,0.046,1.000,0.075,-2.472,-0.244,-0.183,80.000,17594.000,1.000
190530.656,189880.219,210357.547,202865.875,193252.125,184530.109,192478.297,183300.313,0.048,1.002,0.072,-2.441,-0.275,-0.214,80.000,17595.000,1.000
190540.500,189858.234,210332.078,202854.078,193245.500,184491.125,192454.438,183307.469,0.047,1.001,0.077,-2.502,-0.366,-0.153,80.000,17596.000,1.000
190510.094,189812.547,210287.906,202817.859,193214.750,184432.656,192402.656,183273.313,0.045,1.000,0.076,-2.594,-0.305,-0.183,80.000,17597.000,1.000
190492.578,189817.641,210297.828,202821.172,193212.516,184443.750,192415.266,183258.031,0.045,1.002,0.079,-2.533,-0.275,-0.275,80.000,17598.000,1.000
190505.094,189849.203,210332.156,202845.047,193227.625,184477.531,192443.438,183265.984,0.045,1.003,0.075,-2.563,-0.214,-0.366,80.000,17599.000,1.000
190534.766,189874.688,210356.125,202864.531,193246.844,184495.156,192465.609,183285.125,0.045,1.002,0.073,-2.533,-0.122,-0.305,80.000,17600.000,1.000
190548.719,189861.094,210340.828,202862.469,193250.422,184465.375,192449.688,183298.891,0.048,1.001,0.073,-2.502,-0.122,-0.397,80.000,17601.000,1.000
190527.266,189820.766,210304.266,202834.313,193221.906,184399.484,192389.250,183263.844,0.047,0.999,0.076,-2.350,-0.214,-0.549,80.000,17602.000,1.000
190516.531,189824.516,210317.500,202836.281,193218.859,184403.953,192389.781,183248.547,0.048,0.999,0.076,-2.411,-0.183,-0.549,80.000,17603.000,1.000
190533.250,189865.375,210362.109,202870.344,193242.547,184443.297,192424.203,183272.156,0.048,0.999,0.079,-2.411,-0.183,-0.549,80.000,17604.000,1.000
190565.969,189896.938,210393.141,202899.578,193265.078,184454.922,192436.813,183303.359,0.048,1.000,0.082,-2.411,-0.092,-0.549,80.000,17605.000,1.000
190573.938,189875.750,210368.547,202886.172,193258.906,184415.672,192406.328,183310.156,0.049,0.999,0.077,-2.319,-0.214,-0.519,80.000,17606.000,1.000
190550.328,189840.266,210333.406,202860.328,193239.875,184375.609,192373.250,183293.969,0.046,0.999,0.074,-2.228,-0.153,-0.549,80.000,17607.000,1.000
190536.828,189854.656,210349.422,202867.031,193245.406,184401.188,192391.578,183287.703,0.046,0.998,0.074,-2.014,-0.122,-0.549,80.000,17608.000,1.000
190543.172,189883.984,210381.422,202891.438,193261.500,184448.922,192430.297,183302.281,0.046,0.997,0.079,-2.045,-0.183,-0.610,80.000,17609.000,1.000
190572.141,189909.906,210402.531,202908.516,193280.109,184475.484,192450.406,183331.781,0.044,0.999,0.078,-1.953,-0.214,-0.671,80.000,17610.000,1.000
190576.172,189883.703,210370.688,202890.906,193269.109,184442.578,192424.203,183338.141,0.043,0.999,0.079,-1.831,-0.244,-0.610,80.000,17611.000,1.000
190550.781,189847.141,210332.969,202859.172,193248.188,184416.031,192397.484,183312.656,0.044,0.997,0.078,-1.740,-0.275,-0.641,80.000,17612.000,1.000
190531.281,189848.484,210339.219,202855.859,193244.078,184442.844,192413.578,183293.250,0.045,1.000,0.079,-1.678,-0.427,-0.641,80.000,17613.000,1.000
190537.906,189876.469,210367.563,202875.000,193254.891,184485.500,192442.625,183297.547,0.044,0.998,0.078,-1.648,-0.336,-0.732,80.000,17614.000,1.000
190564.906,189905.703,210390.094,202896.547,193277.875,184522.422,192476.953,183322.047,0.044,0.999,0.079,-1.617,-0.427,-0.732,80.000,17615.000,1.000
190579.391,189892.469,210371.859,202888.938,193280.813,184504.625,192464.531,183333.844,0.045,0.999,0.079,-1.617,-0.458,-0.610,80.000,17616.000,1.000
190543.984,189847.688,210326.703,202849.688,193248.547,184450.531,192415.813,183295.750,0.042,1.001,0.078,-1.617,-0.519,-0.610,80.000,17617.000,1.000
190524.141,189851.609,210335.641,202845.047,193246.219,184473.344,192432.172,183271.891,0.042,1.001,0.080,-1.617,-0.580,-0.549,80.000,17618.000,1.000
190533.609,189880.672,210368.375,202865.516,193261.859,184514.281,192464.984,183279.938,0.042,1.000,0.078,-1.526,-0.458,-0.580,80.000,17619.000,1.000
190552.125,189896.500,210379.906,202878.563,193270.984,184524.125,192473.656,183292.891,0.042,1.000,0.081,-1.526,-0.610,-0.549,80.000,17620.000,1.000
190563.297,189881.125,210357.906,202868.734,193270.984,184495.875,192459.078,183307.016,0.042,0.998,0.080,-1.556,-0.641,-0.488,80.000,17621.000,1.000
190537.281,189840.344,210317.500,202835.828,193245.328,184449.016,192417.953,183274.563,0.042,0.998,0.078,-1.495,-0.671,-0.458,80.000,17622.000,1.000
190514.922,189836.594,210318.578,202827.422,193229.672,184448.656,192411.609,183242.656,0.042,1.000,0.079,-1.465,-0.671,-0.519,80.000,17623.000,1.000
190522.609,189864.750,210350.750,202849.594,193242.547,184486.484,192447.453,183256.234,0.042,1.000,0.077,-1.495,-0.702,-0.580,80.000,17624.000,1.000
190556.953,189894.172,210381.156,202875.797,193267.672,184508.297,192471.859,183294.859,0.044,0.998,0.080,-1.526,-0.763,-0.519,80.000,17625.000,1.000
190574.922,189881.469,210367.391,202878.844,193270.625,184473.609,192448.438,183315.422,0.044,0.998,0.079,-1.404,-0.824,-0.427,80.000,17626.000,1.000
190547.469,189839.547,210327.594,202845.125,193243.719,184421.656,192406.859,183287.531,0.043,0.999,0.079,-1.434,-0.916,-0.397,80.000,17627.000,1.000
190525.109,189838.375,210334.031,202843.344,193234.953,184425.859,192409.453,183268.750,0.045,1.002,0.076,-1.434,-0.916,-0.397,80.000,17628.000,1.000
190534.422,189867.891,210366.313,202864.359,193243.891,184448.219,192425.813,183279.484,0.046,1.000,0.077,-1.465,-0.854,-0.427,80.000,17629.000,1.000
190563.297,189894.438,210389.656,202886.531,193261.063,184458.766,192439.406,183309.609,0.046,1.000,0.077,-1.465,-0.763,-0.275,80.000,17630.000,1.000
190572.500,189874.328,210366.938,202879.906,193258.469,184427.203,192418.406,183326.156,0.046,1.002,0.077,-1.465,-0.732,-0.214,80.000,17631.000,1.000
190541.750,189831.047,210322.688,202842.453,193227.797,184377.313,192372.797,183295.578,0.046,1.001,0.078,-1.495,-0.763,-0.336,80.000,17632.000,1.000
190513.844,189828.547,210323.313,202833.328,193216.359,184387.234,192377.813,183270.984,0.047,1.002,0.072,-1.587,-0.732,-0.244,80.000,17633.000,1.000
190527.438,189861.266,210358.266,202862.031,193233.438,184425.688,192405.438,183285.031,0.048,1.000,0.075,-1.556,-0.671,-0.183,80.000,17634.000,1.000
190556.500,189888.188,210382.313,202885.000,193254.719,184452.500,192429.391,183310.516,0.048,1.000,0.074,-1.617,-0.671,-0.275,80.000,17635.000,1.000
190568.656,189871.547,210361.578,202876.328,193256.859,184436.406,192419.734,183324.188,0.049,1.000,0.073,-1.526,-0.519,-0.305,80.000,17636.000,1.000
190541.125,189834.625,210321.250,202843.250,193234.781,184404.672,192389.875,183296.469,0.045,1.001,0.075,-1.617,-0.549,-0.214,80.000,17637.000,1.000
190515.281,189834.625,210321.797,202834.219,193228.875,184427.375,192402.938,183269.203,0.046,1.000,0.074,-1.617,-0.519,-0.244,80.000,17638.000,1.000
190528.063,189867.172,210357.734,202862.563,193253.109,184489.875,192449.516,183279.484,0.048,1.000,0.077,-1.648,-0.549,-0.275,80.000,17639.000,1.000
190561.063,189897.031,210382.859,202886.969,193277.688,184521.078,192480.984,183309.703,0.047,1.001,0.078,-1.617,-0.458,-0.244,80.000,17640.000,1.000
190572.234,189881.469,210359.969,202873.734,193275.906,184490.953,192462.031,183323.922,0.047,0.997,0.078,-1.648,-0.427,-0.214,80.000,17641.000,1.000
190541.297,189836.953,210313.391,202833.234,193244.781,184442.672,192418.844,183287.078,0.049,1.000,0.077,-1.678,-0.397,-0.214,80.000,17642.000,1.000
190525.031,189845.266,210323.047,202832.078,193241.297,184462.969,192430.563,183266.156,0.049,1.000,0.076,-1.678,-0.305,-0.305,80.000,17643.000,1.000
190535.313,189874.766,210356.391,202860.328,193258.828,184506.156,192468.109,183282.078,0.048,1.001,0.074,-1.709,-0.275,-0.275,80.000,17644.000,1.000
190557.484,189893.188,210371.672,202877.500,193270.984,184524.484,192480.984,183296.922,0.048,1.001,0.078,-1.801,-0.122,-0.336,80.000,17645.000,1.000
190572.234,189872.531,210349.063,202866.047,193265.344,184487.828,192454.609,183304.250,0.046,1.002,0.077,-1.770,-0.153,-0.214,80.000,17646.000,1.000
190550.594,189837.125,210314.906,202836.188,193241.219,184441.953,192413.844,183275.016,0.048,1.002,0.078,-1.862,-0.183,-0.244,80.000,17647.000,1.000
190539.156,189844.906,210329.563,202839.500,193238.078,184456.797,192420.281,183254.984,0.048,1.002,0.075,-1.831,-0.153,-0.275,80.000,17648.000,1.000
190559.000,189884.688,210372.219,202871.953,193260.438,184500.422,192456.750,183275.109,0.046,1.002,0.076,-1.923,0.031,-0.244,80.000,17649.000,1.000
190589.047,189915.547,210399.484,202897.172,193282.609,184523.141,192481.250,183306.578,0.047,1.001,0.073,-1.923,0.000,-0.214,80.000,17650.000,1.000
190596.547,189895.156,210374.719,202884.109,193274.922,184488.797,192460.234,183319.000,0.047,1.001,0.077,-1.953,-0.031,-0.122,80.000,17651.000,1.000
190575.359,189857.609,210340.203,202856.750,193252.828,184445.703,192426.719,183301.656,0.048,1.002,0.078,-2.014,-0.061,-0.183,80.000,17652.000,1.000
190550.688,189851.172,210340.922,202847.359,193234.500,184435.344,192403.281,183269.375,0.049,1.001,0.076,-2.075,0.000,-0.214,80.000,17653.000,1.000
190550.328,189873.969,210365.953,202862.563,193240.047,184456.891,192419.469,183277.078,0.047,1.001,0.076,-2.045,-0.122,-0.122,80.000,17654.000,1.000
190577.063,189904.453,210390.094,202881.422,193263.109,184479.953,192447.547,183314.359,0.047,1.001,0.077,-2.106,-0.092,-0.153,80.000,17655.000,1.000
190590.828,189889.078,210369.625,202877.234,193266.422,184449.109,192432.250,183335.547,0.046,1.001,0.078,-2.197,-0.092,-0.183,80.000,17656.000,1.000
190558.109,189842.141,210323.313,202838.875,193240.500,184403.953,192399.266,183311.938,0.047,1.000,0.078,-2.289,-0.061,-0.061,80.000,17657.000,1.000
190537.281,189848.484,210331.000,202836.547,193240.672,184430.594,192415.188,183292.359,0.047,1.000,0.074,-2.228,-0.061,-0.122,80.000,17658.000,1.000
190554.000,189888.359,210374.266,202870.609,193268.219,184487.016,192461.313,183312.922,0.046,1.000,0.075,-2.197,0.061,-0.092,80.000,17659.000,1.000
190577.328,189915.719,210395.547,202888.672,193286.266,184507.578,192477.766,183334.203,0.047,1.000,0.079,-2.136,-0.092,-0.092,80.000,17660.000,1.000
190572.953,189882.094,210361.938,202868.469,193274.297,184468.859,192448.266,183330.172,0.047,1.002,0.082,-2.167,-0.092,0.000,80.000,17661.000,1.000
190547.641,189844.906,210322.859,202837.172,193251.938,184426.391,192411.516,183300.234,0.045,1.002,0.077,-2.106,-0.031,0.031,80.000,17662.000,1.000
190530.484,189847.688,210330.016,202838.688,193252.031,184453.313,192432.531,183284.047,0.046,1.000,0.079,-2.106,0.000,-0.061,80.000,17663.000,1.000
190536.656,189879.328,210361.031,202860.516,193270.000,184503.563,192470.250,183292.719,0.043,1.000,0.079,-2.045,-0.092,-0.031,80.000,17664.000,1.000
190554.359,189893.547,210372.578,202873.734,193278.844,184514.906,192477.406,183307.297,0.045,1.001,0.077,-2.045,-0.244,-0.153,80.000,17665.000,1.000
190557.656,189866.281,210339.313,202856.219,193268.484,184483.531,192454.703,183311.047,0.044,1.001,0.078,-1.984,-0.244,-0.153,80.000,17666.000,1.000
190532.453,189828.641,210298.813,202825.453,193244.344,184447.313,192423.578,183283.156,0.045,1.000,0.076,-2.045,-0.397,-0.214,80.000,17667.000,1.000
190510.984,189834.094,210305.250,202819.469,193235.672,184463.953,192430.297,183258.109,0.046,1.000,0.075,-1.953,-0.336,-0.275,80.000,17668.000,1.000
190517.156,189859.297,210334.750,202839.594,193243.891,184500.422,192457.734,183264.016,0.048,1.000,0.078,-1.862,-0.397,-0.305,80.000,17669.000,1.000
190548.188,189883.891,210359.250,202866.672,193259.188,184517.328,192474.281,183292.094,0.048,1.001,0.078,-1.801,-0.427,-0.305,80.000,17670.000,1.000
190561.234,189866.094,210335.641,202853.797,193246.672,184472.891,192439.672,183299.422,0.048,1.000,0.078,-1.892,-0.427,-0.183,80.000,17671.000,1.000
190544.078,189826.406,210299.891,202826.625,193220.922,184429.891,192399.438,183272.953,0.049,1.000,0.076,-1.709,-0.336,-0.214,80.000,17672.000,1.000
190526.641,189832.297,210309.188,202826.797,193214.031,184442.938,192402.750,183254.094,0.049,1.000,0.076,-1.648,-0.275,-0.275,80.000,17673.000,1.000
190535.844,189864.938,210344.141,202855.766,193227.625,184477.984,192428.953,183269.656,0.050,1.000,0.077,-1.587,-0.275,-0.214,80.000,17674.000,1.000
190554.703,189883.797,210360.594,202873.297,193243.000,184495.516,192449.875,183295.750,0.049,1.000,0.078,-1.587,-0.275,-0.183,80.000,17675.000,1.000
190569.016,189869.766,210345.750,202868.203,193254.625,184486.125,192457.828,183325.266,0.048,0.998,0.077,-1.526,-0.214,-0.214,80.000,17676.000,1.000
190542.734,189834.813,210309.453,202836.547,193235.313,184443.922,192414.906,183296.203,0.047,1.000,0.074,-1.465,-0.244,-0.214,80.000,17677.000,1.000
190524.406,189841.156,210319.469,202834.766,193232.359,184443.828,192401.234,183272.063,0.046,1.000,0.074,-1.434,-0.305,-0.244,80.000,17678.000,1.000
190539.781,189883.531,210363.984,202867.750,193263.828,184486.922,192441.469,183299.156,0.045,0.999,0.075,-1.465,-0.244,-0.305,80.000,17679.000,1.000
190558.906,189905.078,210385.359,202887.781,193289.484,184511.328,192474.547,183330.531,0.044,1.003,0.074,-1.404,-0.305,-0.336,80.000,17680.000,1.000
190561.766,189877.719,210354.516,202869.813,193282.422,184473.250,192450.141,183334.297,0.042,1.000,0.073,-1.404,-0.214,-0.366,80.000,17681.000,1.000
190542.641,189844.641,210319.547,202839.234,193261.500,184432.297,192417.141,183310.063,0.042,1.000,0.074,-1.434,-0.244,-0.549,80.000,17682.000,1.000
190534.234,189858.938,210335.734,202844.594,193266.328,184458.938,192440.391,183300.047,0.044,0.999,0.075,-1.465,-0.214,-0.519,80.000,17683.000,1.000
190544.609,189891.672,210368.734,202869.984,193283.047,184501.672,192477.859,183311.672,0.043,1.000,0.072,-1.404,-0.336,-0.458,80.000,17684.000,1.000
190569.375,189913.578,210390.906,202890.453,193304.422,184530.469,192511.922,183341.984,0.045,1.002,0.076,-1.282,-0.488,-0.458,80.000,17685.000,1.000
190583.328,189897.922,210372.391,202882.141,193301.375,184499.625,192486.609,183351.906,0.046,1.001,0.074,-1.343,-0.549,-0.397,80.000,17686.000,1.000
190558.563,189855.813,210329.563,202847.281,193266.516,184441.594,192426.984,183307.656,0.047,1.001,0.075,-1.404,-0.488,-0.427,80.000,17687.000,1.000
190528.422,189846.344,210323.406,202828.672,193243.172,184439.984,192416.250,183263.656,0.046,1.001,0.076,-1.404,-0.427,-0.488,80.000,17688.000,1.000
190538.172,189877.453,210359.781,202856.484,193261.063,184488.453,192458.625,183279.844,0.045,1.002,0.075,-1.465,-0.427,-0.488,80.000,17689.000,1.000
190567.766,189905.703,210385.891,202884.297,193279.297,184513.750,192479.641,183304.781,0.046,1.003,0.075,-1.556,-0.366,-0.427,80.000,17690.000,1.000
190577.328,189883.625,210359.344,202871.781,193266.328,184476.828,192446.297,183304.516,0.044,1.004,0.071,-1.495,-0.366,-0.427,80.000,17691.000,1.000
190549.797,189838.656,210317.047,202839.141,193237.719,184432.563,192407.938,183276.172,0.042,1.003,0.076,-1.648,-0.397,-0.397,80.000,17692.000,1.000
190520.828,189833.641,210316.875,202831.094,193226.281,184444.641,192412.859,183253.109,0.042,1.004,0.078,-1.617,-0.488,-0.488,80.000,17693.000,1.000
190533.344,189869.313,210354.156,202860.859,193245.859,184489.344,192445.047,183266.078,0.045,1.006,0.076,-1.648,-0.549,-0.549,80.000,17694.000,1.000
190560.156,189893.359,210378.031,202885.281,193268.219,184516.250,192466.953,183296.469,0.044,1.005,0.076,-1.770,-0.488,-0.519,80.000,17695.000,1.000
190571.703,189878.891,210360.859,202881.078,193271.875,184493.188,192456.844,183323.563,0.043,1.005,0.075,-1.923,-0.519,-0.549,80.000,17696.000,1.000
190553.281,189850.000,210330.281,202859.172,193256.328,184453.844,192425.641,183310.594,0.044,1.005,0.076,-1.984,-0.488,-0.610,80.000,17697.000,1.000
190531.281,189851.797,210334.750,202853.359,193249.797,184468.234,192425.813,183287.359,0.042,1.007,0.077,-1.953,-0.519,-0.610,80.000,17698.000,1.000
190538.703,189882.734,210367.125,202877.672,193272.328,184517.328,192471.594,183309.438,0.043,1.006,0.078,-2.045,-0.641,-0.580,80.000,17699.000,1.000
190564.984,189907.313,210388.578,202895.734,193294.406,184535.750,192490.906,183341.891,0.046,1.003,0.081,-2.197,-0.671,-0.549,80.000,17700.000,1.000
190568.656,189886.297,210358.891,202876.875,193288.594,184499.531,192466.141,183350.828,0.045,1.002,0.077,-2.228,-0.671,-0.397,80.000,17701.000,1.000
190537.547,189839.453,210311.234,202837.891,193257.031,184444.641,192417.953,183318.375,0.047,1.001,0.076,-2.258,-0.671,-0.458,80.000,17702.000,1.000
190520.734,189845.172,210319.828,202834.938,193252.203,184458.672,192425.906,183298.625,0.046,1.003,0.074,-2.258,-0.641,-0.305,80.000,17703.000,1.000
190534.328,189882.813,210357.281,202860.781,193269.641,184500.781,192458.453,183307.469,0.047,1.002,0.076,-2.258,-0.610,-0.366,80.000,17704.000,1.000
190552.297,189899.359,210372.484,202872.844,193281.797,184519.203,192480.094,183324.641,0.046,1.002,0.077,-2.167,-0.580,-0.183,80.000,17705.000,1.000
190561.594,189883.359,210352.094,202864.703,193278.766,184489.875,192465.969,183332.500,0.044,0.999,0.079,-2.228,-0.519,-0.183,80.000,17706.000,1.000
190541.563,189844.188,210317.672,202838.609,193257.219,184450.891,192436.547,183306.938,0.043,1.001,0.077,-2.136,-0.580,-0.122,80.000,17707.000,1.000
190525.109,189848.938,210327.875,202840.844,193250.516,184457.516,192440.656,183284.844,0.045,1.000,0.074,-2.136,-0.519,-0.122,80.000,17708.000,1.000
190532.719,189878.531,210361.672,202864.797,193264.016,184494.703,192470.969,183291.828,0.045,0.999,0.074,-2.075,-0.519,0.000,80.000,17709.000,1.000
190550.063,189895.063,210374.625,202873.203,193270.266,184508.656,192476.516,183299.688,0.048,0.997,0.077,-2.136,-0.549,0.061,80.000,17710.000,1.000
190561.859,189878.609,210353.531,202862.297,193268.563,184479.859,192459.172,183313.813,0.047,0.996,0.075,-2.075,-0.458,0.153,80.000,17711.000,1.000
190541.828,189839.906,210315.703,202833.063,193243.000,184429.531,192416.156,183288.609,0.049,0.996,0.074,-1.953,-0.397,0.061,80.000,17712.000,1.000
190523.422,189838.375,210321.156,202830.469,193233.172,184436.688,192409.906,183261.875,0.049,0.997,0.075,-1.862,-0.305,0.122,80.000,17713.000,1.000
190534.859,189876.203,210359.344,202858.984,193255.250,184490.141,192451.297,183279.484,0.047,0.996,0.076,-1.923,-0.336,0.061,80.000,17714.000,1.000
190558.109,189902.844,210380.344,202880.172,193277.875,184519.922,192482.766,183312.750,0.049,0.998,0.077,-1.831,-0.305,0.031,80.000,17715.000,1.000
190570.453,189887.281,210361.031,202876.781,193282.609,184497.750,192472.313,183334.375,0.048,0.999,0.077,-1.831,-0.214,-0.092,80.000,17716.000,1.000
190545.594,189846.422,210322.422,202845.938,193263.391,184459.656,192439.047,183316.500,0.047,1.000,0.077,-1.801,-0.275,-0.092,80.000,17717.000,1.000
190521.719,189846.344,210326.078,202838.781,193258.375,184473.688,192444.859,183296.469,0.050,1.000,0.078,-1.831,-0.153,-0.122,80.000,17718.000,1.000
190533.781,189884.609,210364.438,202868.906,193281.625,184518.844,192481.969,183312.125,0.048,1.000,0.080,-1.892,-0.092,-0.153,80.000,17719.000,1.000
190564.453,189914.203,210392.516,202897.172,193309.078,184547.281,192512.547,183344.578,0.047,0.999,0.078,-2.014,-0.122,-0.153,80.000,17720.000,1.000
190580.016,189899.719,210376.234,202893.406,193315.781,184528.328,192505.578,183367.016,0.048,1.001,0.081,-1.892,-0.122,-0.153,80.000,17721.000,1.000
190557.922,189864.313,210339.672,202861.672,193290.656,184471.375,192452.281,183342.875,0.048,1.001,0.081,-1.984,-0.031,-0.305,80.000,17722.000,1.000
190534.766,189866.984,210344.859,202856.031,193283.766,184484.063,192463.375,183322.406,0.049,1.002,0.081,-1.953,0.000,-0.183,80.000,17723.000,1.000
190532.719,189889.172,210367.297,202867.656,193286.719,184513.297,192479.469,183317.484,0.050,1.002,0.080,-1.923,0.031,-0.305,80.000,17724.000,1.000
190559.625,189914.109,210390.359,202887.328,193304.688,184534.219,192501.813,183344.938,0.049,1.002,0.080,-1.923,0.092,-0.336,80.000,17725.000,1.000
190569.547,189895.156,210365.594,202874.281,193296.281,184502.219,192476.953,183350.391,0.048,1.003,0.079,-2.014,0.153,-0.366,80.000,17726.000,1.000
190551.578,189860.906,210329.125,202845.938,193271.344,184457.688,192437.000,183318.906,0.047,1.002,0.077,-2.106,0.092,-0.397,80.000,17727.000,1.000
190531.109,189862.516,210335.109,202841.547,193261.688,184464.750,192433.234,183293.172,0.045,1.001,0.077,-2.014,0.092,-0.336,80.000,17728.000,1.000
190535.672,189891.406,210367.031,202860.688,193275.359,184502.484,192464.359,183300.313,0.047,1.002,0.076,-2.106,0.153,-0.275,80.000,17729.000,1.000
190565.266,189916.078,210393.047,202885.984,193295.219,184523.766,192483.750,183318.906,0.047,1.000,0.075,-1.953,0.122,-0.305,80.000,17730.000,1.000
190577.422,189898.734,210370.516,202875.969,193292.172,184495.156,192466.234,183329.375,0.047,1.002,0.076,-1.862,0.092,-0.244,80.000,17731.000,1.000
190549.531,189855.281,210324.922,202842.188,193262.844,184446.969,192428.953,183302.016,0.046,1.002,0.079,-1.984,0.122,-0.244,80.000,17732.000,1.000
190525.297,189852.953,210325.984,202836.094,193252.656,184453.219,192434.141,183281.359,0.046,1.000,0.081,-2.045,0.122,-0.153,80.000,17733.000,1.000
190534.688,189884.422,210356.656,202853.094,193262.844,184489.156,192456.484,183277.703,0.044,1.001,0.079,-2.014,0.153,-0.031,80.000,17734.000,1.000
190563.203,189909.641,210381.781,202877.672,193282.609,184509.641,192474.906,183305.406,0.045,1.001,0.079,-1.984,0.031,-0.031,80.000,17735.000,1.000
190572.859,189893.094,210362.641,202875.438,193285.016,184482.906,192462.469,183327.766,0.046,1.003,0.080,-2.045,0.061,-0.153,80.000,17736.000,1.000
190543.438,189852.328,210318.750,202841.203,193260.609,184443.109,192429.391,183301.297,0.045,1.001,0.078,-2.045,-0.031,-0.214,80.000,17737.000,1.000
190527.078,189856.438,210327.422,202838.875,193257.391,184464.844,192438.156,183279.313,0.045,1.000,0.078,-1.984,-0.122,-0.183,80.000,17738.000,1.000
190538.438,189890.328,210364.250,202863.281,193275.359,184511.781,192472.672,183293.969,0.043,1.001,0.081,-1.923,-0.092,-0.122,80.000,17739.000,1.000
190565.172,189916.609,210388.938,202886.438,193295.297,184533.156,192483.219,183322.672,0.042,1.001,0.078,-1.923,-0.122,-0.153,80.000,17740.000,1.000
190572.953,189892.297,210362.922,202876.516,193289.484,184497.203,192451.563,183337.328,0.044,1.000,0.078,-1.862,-0.244,-0.214,80.000,17741.000,1.000
190545.500,189852.688,210319.547,202843.438,193264.094,184455.016,192417.063,183313.813,0.045,1.000,0.081,-1.801,-0.366,-0.214,80.000,17742.000,1.000
190524.484,189855.547,210326.078,202841.641,193258.734,184465.922,192425.469,183298.266,0.046,1.000,0.080,-1.770,-0.305,-0.275,80.000,17743.000,1.000
190539.156,189889.438,210364.797,202872.484,193278.500,184513.297,192466.500,183316.141,0.045,1.000,0.079,-1.770,-0.397,-0.275,80.000,17744.000,1.000
190561.234,189914.109,210384.734,202888.672,193294.500,184532.703,192487.688,183340.016,0.046,1.004,0.079,-1.678,-0.366,-0.244,80.000,17745.000,1.000
190567.406,189894.703,210359.250,202873.656,193288.781,184501.328,192465.781,183343.047,0.046,1.002,0.081,-1.617,-0.488,-0.244,80.000,17746.000,1.000
190543.172,189853.406,210318.219,202841.375,193262.578,184454.469,192426.094,183314.078,0.046,1.000,0.081,-1.617,-0.519,-0.214,80.000,17747.000,1.000
190530.219,189861.813,210331.094,202845.578,193260.078,184470.125,192433.156,183294.234,0.049,0.996,0.080,-1.648,-0.702,-0.214,80.000,17748.000,1.000
190541.922,189892.734,210368.813,202871.234,193279.484,184518.672,192476.516,183309.250,0.049,0.996,0.075,-1.465,-0.732,-0.153,80.000,17749.000,1.000
190563.734,189917.328,210390.625,202891.172,193295.844,184535.750,192494.656,183331.078,0.050,0.997,0.074,-1.465,-0.580,-0.061,80.000,17750.000,1.000
190568.656,189890.141,210361.313,202871.594,193282.609,184486.656,192454.438,183329.641,0.048,0.998,0.075,-1.221,-0.488,-0.031,80.000,17751.000,1.000
190549.703,189853.484,210325.016,202842.266,193258.203,184436.141,192413.219,183300.578,0.048,0.998,0.076,-1.190,-0.427,-0.122,80.000,17752.000,1.000
190527.172,189853.047,210329.297,202834.406,193248.359,184444.188,192418.578,183274.297,0.047,1.001,0.079,-1.129,-0.397,-0.061,80.000,17753.000,1.000
190539.953,189884.875,210366.047,202861.141,193267.047,184487.641,192454.703,183286.906,0.047,1.000,0.076,-1.160,-0.488,-0.031,80.000,17754.000,1.000
190569.734,189917.063,210392.234,202882.406,193288.328,184518.672,192481.516,183307.656,0.048,1.002,0.077,-1.099,-0.458,-0.061,80.000,17755.000,1.000
190589.406,189904.188,210375.609,202877.313,193288.422,184489.438,192461.047,183321.953,0.051,1.003,0.075,-1.099,-0.458,-0.153,80.000,17756.000,1.000
190557.750,189853.141,210325.281,202836.375,193252.828,184433.469,192414.906,183288.344,0.048,1.001,0.075,-1.068,-0.397,-0.153,80.000,17757.000,1.000
190536.375,189851.875,210326.797,202830.734,193242.734,184443.563,192417.422,183264.281,0.047,1.000,0.072,-1.099,-0.366,-0.305,80.000,17758.000,1.000
190537.984,189878.891,210355.406,202849.156,193253.016,184476.281,192443.438,183271.172,0.045,1.001,0.075,-1.099,-0.336,-0.275,80.000,17759.000,1.000
190563.734,189902.484,210379.094,202873.922,193273.219,184502.578,192468.828,183302.547,0.047,1.001,0.077,-1.129,-0.336,-0.458,80.000,17760.000,1.000
190583.500,189892.203,210363.359,202874.453,193279.297,184488.094,192464.984,183328.297,0.045,1.002,0.076,-1.129,-0.366,-0.580,80.000,17761.000,1.000
190552.125,189847.328,210315.625,202837.266,193248.984,184435.609,192419.734,183301.844,0.047,1.001,0.074,-1.190,-0.397,-0.580,80.000,17762.000,1.000
190524.219,189847.328,210315.438,202827.516,193238.531,184450.000,192421.172,183271.531,0.045,1.002,0.077,-1.221,-0.336,-0.519,80.000,17763.000,1.000
190531.016,189878.172,210346.906,202851.563,193254.797,184493.625,192453.094,183284.938,0.048,1.003,0.075,-1.221,-0.305,-0.519,80.000,17764.000,1.000
190561.953,189911.609,210375.438,202878.844,193281.094,184520.813,192480.625,183319.094,0.048,1.003,0.076,-1.190,-0.336,-0.519,80.000,17765.000,1.000
190579.656,189902.125,210359.969,202875.891,193284.391,184496.938,192466.328,183337.594,0.047,1.001,0.078,-1.282,-0.366,-0.671,80.000,17766.000,1.000
190559.891,189865.656,210322.422,202841.109,193261.781,184455.547,192427.969,183313.188,0.046,1.004,0.074,-1.434,-0.397,-0.580,80.000,17767.000,1.000
190533.703,189862.344,210323.578,202833.859,193250.594,184462.078,192429.219,183289.594,0.043,1.003,0.076,-1.526,-0.366,-0.549,80.000,17768.000,1.000
190544.422,189896.500,210361.484,202862.297,193268.750,184500.969,192458.453,183300.047,0.046,1.003,0.073,-1.617,-0.397,-0.458,80.000,17769.000,1.000
190565.891,189918.125,210380.000,202878.125,193287.172,184524.922,192483.672,183324.813,0.046,1.004,0.075,-1.556,-0.397,-0.336,80.000,17770.000,1.000
190570.359,189890.500,210348.703,202863.188,193278.766,184490.234,192459.797,183329.281,0.045,1.004,0.076,-1.648,-0.366,-0.397,80.000,17771.000,1.000
190545.328,189849.109,210307.750,202832.875,193257.125,184448.922,192427.969,183305.859,0.045,1.004,0.076,-1.678,-0.397,-0.305,80.000,17772.000,1.000
190517.875,189846.516,210309.813,202828.766,193250.516,184462.078,192438.156,183285.125,0.045,1.003,0.077,-1.770,-0.336,-0.244,80.000,17773.000,1.000
190522.344,189875.844,210342.984,202852.734,193265.344,184501.328,192471.781,183295.844,0.046,1.002,0.079,-1.831,-0.458,-0.183,80.000,17774.000,1.000
190551.578,189901.500,210365.859,202873.922,193281.359,184515.813,192484.031,183316.859,0.046,1.002,0.073,-1.892,-0.397,-0.183,80.000,17775.000,1.000
190560.156,189879.688,210338.859,202857.828,193270.266,184479.141,192455.063,183315.781,0.046,1.000,0.073,-1.923,-0.427,-0.153,80.000,17776.000,1.000
190548.906,189849.922,210311.234,202836.719,193253.734,184438.734,192425.281,183298.078,0.046,1.001,0.077,-1.953,-0.366,-0.244,80.000,17777.000,1.000
190528.422,189847.406,210316.328,202827.250,193241.656,184444.094,192423.500,183267.500,0.047,1.002,0.077,-2.106,-0.366,-0.153,80.000,17778.000,1.000
190535.484,189875.219,210347.094,202844.594,193247.734,184475.391,192443.875,183264.469,0.047,1.001,0.073,-2.106,-0.458,-0.061,80.000,17779.000,1.000
190562.578,189899.719,210369.438,202865.422,193259.984,184490.500,192457.734,183282.875,0.045,1.001,0.072,-2.167,-0.427,-0.031,80.000,17780.000,1.000
190577.953,189881.656,210347.891,202858.906,193254.438,184459.922,192435.563,183292.000,0.047,1.001,0.074,-2.106,-0.397,-0.031,80.000,17781.000,1.000
190558.469,189840.266,210309.000,202827.422,193232.000,184418.078,192401.141,183271.703,0.049,1.001,0.077,-2.136,-0.397,0.000,80.000,17782.000,1.000
190531.469,189837.672,210310.969,202821.172,193222.438,184426.938,192402.031,183252.750,0.046,1.001,0.075,-2.136,-0.488,-0.031,80.000,17783.000,1.000
190534.594,189871.016,210345.125,202844.594,193240.313,184470.922,192436.094,183268.938,0.047,1.000,0.074,-2.136,-0.458,-0.031,80.000,17784.000,1.000
190555.609,189897.922,210365.781,202863.188,193261.422,184494.078,192453.797,183296.922,0.046,1.001,0.074,-2.258,-0.488,0.000,80.000,17785.000,1.000
190560.516,189878.891,210340.828,202854.156,193262.672,184472.000,192443.250,183317.125,0.047,1.000,0.073,-2.228,-0.488,0.000,80.000,17786.000,1.000
190533.078,189843.391,210301.047,202824.922,193246.125,184440.078,192419.109,183303.984,0.046,0.999,0.074,-2.228,-0.458,-0.153,80.000,17787.000,1.000
190513.047,189852.781,210310.078,202826.094,193250.328,184470.125,192441.281,183294.234,0.047,1.002,0.079,-2.197,-0.427,-0.244,80.000,17788.000,1.000
190519.656,189888.453,210341.906,202849.594,193266.953,184510.438,192469.813,183305.594,0.047,1.000,0.079,-2.197,-0.458,-0.305,80.000,17789.000,1.000
190539.516,189909.906,210357.281,202867.219,193285.922,184538.688,192497.875,183334.656,0.048,1.000,0.076,-2.106,-0.427,-0.244,80.000,17790.000,1.000
190553.734,189890.500,210336.000,202860.516,193287.875,184517.766,192486.344,183350.563,0.047,0.997,0.074,-2.106,-0.458,-0.336,80.000,17791.000,1.000
190531.281,189851.797,210297.563,202827.063,193263.734,184473.516,192448.344,183322.219,0.048,0.999,0.079,-2.136,-0.336,-0.366,80.000,17792.000,1.000
190508.750,189852.422,210301.844,202816.969,193251.766,184481.469,192449.250,183293.344,0.050,1.000,0.077,-2.014,-0.305,-0.366,80.000,17793.000,1.000
190518.766,189879.063,210335.828,202838.875,193265.344,184519.922,192482.859,183300.500,0.049,1.000,0.079,-1.923,-0.305,-0.458,80.000,17794.000,1.000
190546.031,189905.344,210360.688,202860.156,193282.781,184535.469,192495.734,183319.891,0.047,1.001,0.079,-1.923,-0.305,-0.488,80.000,17795.000,1.000
190561.500,189885.953,210343.156,202855.594,193279.828,184501.406,192475.344,183331.438,0.047,0.999,0.079,-1.831,-0.244,-0.580,80.000,17796.000,1.000
190545.766,189851.797,210309.813,202826.719,193254.359,184455.547,192433.859,183295.125,0.049,0.998,0.076,-1.862,-0.214,-0.488,80.000,17797.000,1.000
190534.234,189857.328,210320.094,202825.188,193244.969,184462.781,192430.375,183267.422,0.046,1.000,0.075,-1.862,-0.183,-0.549,80.000,17798.000,1.000
190545.406,189886.297,210353.344,202850.234,193252.203,184483.172,192445.313,183267.594,0.046,1.000,0.077,-1.831,-0.092,-0.580,80.000,17799.000,1.000
190570.172,189908.391,210374.094,202869.094,193264.016,184492.016,192458.359,183284.484,0.044,1.000,0.079,-1.862,-0.061,-0.488,80.000,17800.000,1.000
190584.031,189890.953,210351.922,202856.125,193255.063,184452.594,192426.000,183283.063,0.045,1.001,0.076,-1.892,-0.061,-0.580,80.000,17801.000,1.000
190564.813,189850.891,210314.188,202826.797,193227.625,184404.500,192386.125,183250.250,0.047,1.001,0.079,-1.862,-0.122,-0.610,80.000,17802.000,1.000
190547.375,189854.563,210322.141,202824.750,193218.234,184412.547,192388.891,183232.281,0.045,1.001,0.079,-1.831,-0.214,-0.610,80.000,17803.000,1.000
190551.672,189881.469,210351.203,202843.969,193226.375,184447.594,192417.500,183247.125,0.044,1.000,0.077,-1.770,-0.214,-0.641,80.000,17804.000,1.000
190572.859,189904.906,210370.969,202865.156,193243.453,184474.234,192443.078,183278.141,0.045,1.003,0.081,-1.740,-0.305,-0.580,80.000,17805.000,1.000
190579.469,189877.281,210343.609,202852.734,193237.906,184440.875,192416.703,183296.203,0.045,1.002,0.081,-1.801,-0.275,-0.519,80.000,17806.000,1.000
190550.234,189836.859,210300.250,202820.453,193217.078,184401.984,192384.422,183283.063,0.044,1.001,0.079,-1.801,-0.305,-0.427,80.000,17807.000,1.000
190524.047,189837.578,210300.953,202813.922,193214.203,184425.063,192394.438,183261.156,0.046,1.002,0.076,-1.801,-0.336,-0.305,80.000,17808.000,1.000
190528.063,189871.016,210332.078,202839.234,193240.313,184484.328,192450.766,183285.469,0.044,1.001,0.075,-1.801,-0.397,-0.427,80.000,17809.000,1.000
190547.203,189896.578,210348.703,202856.391,193262.672,184512.766,192473.828,183317.125,0.043,1.000,0.076,-1.678,-0.427,-0.366,80.000,17810.000,1.000
190560.609,189887.641,210331.984,202854.344,193274.109,184504.094,192474.094,183344.484,0.045,1.002,0.078,-1.770,-0.488,-0.458,80.000,17811.000,1.000
190532.625,189848.844,210291.297,202817.141,193251.313,184460.281,192433.953,183315.156,0.045,1.001,0.078,-1.801,-0.488,-0.366,80.000,17812.000,1.000
190512.688,189854.297,210300.422,202813.563,193248.281,184477.984,192441.734,183294.500,0.045,1.001,0.077,-1.740,-0.427,-0.305,80.000,17813.000,1.000
190529.500,189896.938,210345.484,202847.281,193279.563,184540.391,192497.438,183318.281,0.043,1.000,0.077,-1.740,-0.519,-0.305,80.000,17814.000,1.000
190554.984,189922.422,210367.922,202867.844,193299.766,184564.891,192521.750,183342.063,0.044,0.999,0.076,-1.740,-0.549,-0.305,80.000,17815.000,1.000
190559.719,189894.797,210337.172,202850.859,193285.016,184516.516,192483.219,183341.797,0.046,0.998,0.080,-1.648,-0.610,-0.305,80.000,17816.000,1.000
190538.703,189857.422,210299.438,202819.031,193260.516,184472.625,192445.047,183308.281,0.046,0.999,0.077,-1.617,-0.580,-0.244,80.000,17817.000,1.000
190516.797,189853.672,210303.547,202816.609,193251.047,184480.484,192445.750,183282.250,0.046,0.998,0.077,-1.587,-0.610,-0.183,80.000,17818.000,1.000
190523.328,189883.984,210335.016,202835.031,193260.172,184517.766,192477.234,183285.922,0.046,1.000,0.076,-1.495,-0.641,-0.244,80.000,17819.000,1.000
190548.625,189901.766,210354.328,202851.750,193266.422,184521.172,192480.172,183296.734,0.047,0.998,0.074,-1.526,-0.641,-0.214,80.000,17820.000,1.000
190569.188,189886.844,210336.547,202842.891,193255.344,184476.375,192444.594,183294.063,0.048,0.999,0.077,-1.404,-0.610,-0.244,80.000,17821.000,1.000
190559.266,189855.281,210307.125,202819.828,193231.563,184429.172,192406.422,183263.484,0.048,1.000,0.079,-1.404,-0.488,-0.305,80.000,17822.000,1.000
190536.203,189845.797,210305.250,202808.563,193210.813,184419.250,192391.938,183220.484,0.047,1.001,0.079,-1.434,-0.488,-0.183,80.000,17823.000,1.000
190552.922,189878.078,210345.219,202836.719,193225.750,184451.875,192416.344,183225.125,0.046,1.001,0.079,-1.404,-0.488,-0.092,80.000,17824.000,1.000
190577.953,189900.438,210368.188,202858.094,193241.484,184469.141,192437.172,183253.828,0.046,1.002,0.077,-1.343,-0.427,-0.214,80.000,17825.000,1.000
190589.484,189884.344,210348.344,202854.781,193241.125,184443.563,192424.563,183276.000,0.047,1.001,0.079,-1.404,-0.397,-0.214,80.000,17826.000,1.000
190566.250,189843.563,210306.766,202828.328,193217.344,184401.094,192386.219,183257.766,0.049,1.000,0.075,-1.343,-0.458,-0.244,80.000,17827.000,1.000
190535.484,189838.375,210302.125,202812.500,193206.250,184412.813,192391.844,183241.484,0.052,1.002,0.074,-1.343,-0.427,-0.092,80.000,17828.000,1.000
190533.875,189859.578,210324.828,202829.844,193212.875,184443.656,192411.688,183247.297,0.051,1.002,0.072,-1.373,-0.275,-0.153,80.000,17829.000,1.000
190552.469,189884.875,210342.359,202850.313,193233.516,184471.094,192439.594,183283.688,0.049,1.002,0.074,-1.434,-0.336,-0.122,80.000,17830.000,1.000
190563.109,189877.188,210322.688,202844.953,193243.172,184462.156,192442.359,183316.500,0.049,1.003,0.076,-1.526,-0.214,-0.183,80.000,17831.000,1.000
190538.703,189846.969,210284.953,202816.078,193231.469,184433.906,192422.250,183309.891,0.046,1.004,0.077,-1.526,-0.153,-0.305,80.000,17832.000,1.000
190510.000,189844.469,210287.281,202808.656,193230.750,184455.906,192435.750,183293.609,0.047,1.003,0.074,-1.526,-0.275,-0.305,80.000,17833.000,1.000
190518.141,189877.906,210325.719,202833.500,193255.969,184508.469,192476.609,183310.063,0.048,1.003,0.076,-1.617,-0.214,-0.366,80.000,17834.000,1.000
190548.453,189909.188,210352.813,202856.938,193282.609,184542.359,192511.031,183343.141,0.047,1.002,0.077,-1.678,-0.214,-0.458,80.000,17835.000,1.000
190562.406,189894.891,210332.516,202850.859,193285.828,184526.891,192512.984,183364.875,0.045,1.004,0.075,-1.648,-0.244,-0.366,80.000,17836.000,1.000
190547.641,189860.828,210299.969,202823.844,193266.063,184485.313,192469.453,183337.156,0.047,1.003,0.077,-1.709,-0.214,-0.305,80.000,17837.000,1.000
190526.094,189856.984,210302.828,202815.813,193251.047,184480.938,192448.438,183298.000,0.045,1.002,0.076,-1.770,-0.244,-0.336,80.000,17838.000,1.000
190528.609,189884.781,210334.125,202838.063,193264.719,184524.297,192485.188,183305.859,0.047,1.002,0.075,-1.892,-0.183,-0.305,80.000,17839.000,1.000
190548.547,189905.703,210355.313,202856.125,193279.391,184548.438,192505.578,183322.219,0.046,1.003,0.077,-1.892,-0.122,-0.336,80.000,17840.000,1.000
190574.641,189901.234,210347.359,202859.344,193284.313,184529.578,192493.328,183338.141,0.045,1.004,0.078,-1.923,-0.122,-0.305,80.000,17841.000,1.000
190564.906,189870.391,210316.609,202834.141,193259.891,184480.578,192447.188,183306.047,0.046,1.003,0.078,-2.045,-0.092,-0.366,80.000,17842.000,1.000
190544.781,189869.406,210319.469,202826.797,193243.719,184478.172,192437.438,183273.234,0.045,1.001,0.077,-2.106,-0.153,-0.427,80.000,17843.000,1.000
190551.766,189896.672,210351.469,202849.328,193253.453,184510.344,192469.359,183277.250,0.045,1.003,0.079,-2.045,-0.244,-0.366,80.000,17844.000,1.000
190576.609,189910.719,210370.063,202866.859,193262.219,184513.563,192475.797,183293.344,0.045,1.001,0.077,-2.014,-0.305,-0.336,80.000,17845.000,1.000
190592.438,189890.063,210349.859,202858.000,193253.734,184467.078,192438.609,183293.875,0.046,1.002,0.078,-2.136,-0.275,-0.336,80.000,17846.000,1.000
190574.297,189852.063,210311.063,202826.359,193224.141,184407.531,192385.141,183254.000,0.047,1.001,0.077,-2.228,-0.275,-0.214,80.000,17847.000,1.000
190558.375,189856.438,210319.547,202825.547,193219.938,184414.328,192389.875,183232.281,0.046,1.000,0.075,-2.106,-0.244,-0.183,80.000,17848.000,1.000
190570.891,189889.703,210357.469,202849.953,193236.563,184448.844,192414.016,183234.688,0.048,0.999,0.076,-2.075,-0.244,-0.153,80.000,17849.000,1.000
190606.391,189925.203,210390.625,202881.156,193265.984,184480.219,192446.922,183269.656,0.046,1.000,0.077,-2.167,-0.458,-0.153,80.000,17850.000,1.000
