EEG 1,EEG 2,EEG 3,EEG 4,EEG 5,EEG 6,EEG 7,EEG 8,Accelerometer X,Accelerometer Y,Accelerometer Z,Gyroscope X,Gyroscope Y,Gyroscope Z,Battery Level,Counter,Validation Indicator
192448.344,189671.641,205229.797,198327.750,192839.688,184310.609,192439.766,182341.969,0.000,1.000,0.171,-1.678,-0.244,-0.122,80.000,159793.000,1.000
192463.734,189682.641,205241.328,198334.453,192848.453,184312.672,192445.484,182364.219,0.000,1.000,0.170,-1.678,-0.122,-0.031,80.000,159794.000,1.000
192465.063,189665.109,205214.766,198314.875,192837.453,184288.625,192428.688,182378.625,-0.002,1.003,0.168,-1.709,-0.153,0.000,80.000,159795.000,1.000
192445.047,189637.484,205180.625,198286.531,192814.922,184259.125,192401.859,182362.609,-0.001,1.003,0.167,-1.678,-0.061,-0.153,80.000,159796.000,1.000
192431.000,189641.859,205183.750,198281.625,192810.625,184275.484,192411.250,182341.875,-0.002,1.001,0.170,-1.617,-0.031,-0.275,80.000,159797.000,1.000
192452.281,189677.000,205220.141,198311.656,192835.031,184324.469,192449.328,182352.781,-0.002,1.000,0.168,-1.617,0.031,-0.305,80.000,159798.000,1.000
192494.656,189712.938,205257.781,198352.875,192870.891,184358.000,192480.172,182392.391,-0.002,1.000,0.170,-1.740,-0.031,-0.275,80.000,159799.000,1.000
192510.750,189713.484,205249.469,198355.734,192878.047,184346.375,192466.859,182415.641,-0.002,1.000,0.171,-1.770,0.061,-0.336,80.000,159800.000,1.000
192476.063,189662.516,205197.703,198307.094,192839.688,184294.078,192425.109,182383.188,0.000,1.002,0.170,-1.740,0.153,-0.336,80.000,159801.000,1.000
192450.406,189645.891,205184.906,198280.547,192817.422,184284.688,192418.672,182341.422,-0.001,1.002,0.170,-1.801,0.153,-0.305,80.000,159802.000,1.000
192464.078,189665.641,205216.922,198308.531,192835.219,184316.781,192447.641,182347.234,0.001,1.004,0.171,-1.831,0.275,-0.336,80.000,159803.000,1.000
192511.297,189709.453,205257.328,198352.609,192869.094,184350.141,192476.953,182379.156,0.000,1.005,0.170,-1.740,0.366,-0.336,80.000,159804.000,1.000
192518.094,189690.859,205237.125,198339.016,192856.844,184310.969,192442.984,182385.953,0.001,1.003,0.166,-1.770,0.366,-0.366,80.000,159805.000,1.000
192493.406,189655.813,205203.688,198303.250,192829.672,184272.797,192413.031,182359.484,0.000,1.005,0.170,-1.831,0.275,-0.305,80.000,159806.000,1.000
192483.047,189660.281,205212.359,198302.984,192822.703,184271.906,192408.109,182328.469,-0.001,1.007,0.171,-1.923,0.366,-0.336,80.000,159807.000,1.000
192502.891,189694.438,205247.234,198334.016,192840.578,184304.094,192432.078,182328.906,-0.004,1.006,0.171,-1.953,0.458,-0.397,80.000,159808.000,1.000
192529.797,189713.391,205269.406,198356.547,192861.766,184320.625,192457.297,182352.609,-0.002,1.007,0.169,-2.045,0.336,-0.458,80.000,159809.000,1.000
192532.484,189698.641,205251.875,198349.922,192859.719,184292.563,192438.250,182373.078,-0.003,1.008,0.169,-2.167,0.336,-0.519,80.000,159810.000,1.000
192498.328,189657.781,205214.063,198315.766,192833.781,184253.750,192401.859,182354.297,-0.005,1.006,0.172,-2.258,0.336,-0.580,80.000,159811.000,1.000
192481.609,189655.094,205216.656,198310.406,192825.375,184259.031,192395.594,182319.797,-0.004,1.007,0.172,-2.289,0.275,-0.641,80.000,159812.000,1.000
192486.078,189673.516,205239.453,198331.063,192837.266,184287.547,192421.969,182319.969,-0.004,1.007,0.174,-2.350,0.244,-0.641,80.000,159813.000,1.000
192502.359,189696.844,205256.531,198347.063,192855.422,184310.438,192448.625,182349.031,-0.004,1.003,0.173,-2.258,0.092,-0.702,80.000,159814.000,1.000
192506.203,189683.531,205235.875,198337.406,192848.531,184288.172,192424.297,182369.047,-0.003,1.003,0.171,-2.380,0.092,-0.610,80.000,159815.000,1.000
192472.578,189643.203,205193.313,198301.563,192821.000,184256.250,192393.281,182356.813,-0.001,1.002,0.173,-2.258,0.061,-0.580,80.000,159816.000,1.000
192443.172,189631.406,205184.641,198289.125,192807.406,184261.359,192395.594,182333.469,-0.004,1.003,0.174,-2.197,0.031,-0.488,80.000,159817.000,1.000
192455.594,189655.906,205214.063,198317.109,192826.813,184303.641,192439.234,182347.781,-0.002,1.004,0.175,-2.258,0.061,-0.427,80.000,159818.000,1.000
192481.969,189677.891,205237.031,198343.844,192845.500,184323.672,192457.563,182375.313,0.000,1.004,0.174,-2.380,0.000,-0.336,80.000,159819.000,1.000
192482.594,189661.172,205213.250,198324.172,192834.500,184292.203,192428.766,182380.859,-0.001,1.003,0.174,-2.319,-0.092,-0.305,80.000,159820.000,1.000
192449.063,189619.422,205170.344,198284.656,192804.906,184253.750,192388.000,182355.906,-0.001,1.003,0.173,-2.228,-0.153,-0.214,80.000,159821.000,1.000
192435.203,189625.688,205177.219,198286.172,192805.703,184276.109,192403.734,182336.422,-0.002,1.001,0.176,-2.197,-0.244,-0.153,80.000,159822.000,1.000
192437.000,189648.031,205203.063,198297.359,192821.453,184309.453,192444.688,182338.484,-0.003,1.000,0.174,-2.167,-0.275,-0.122,80.000,159823.000,1.000
192458.453,189664.125,205222.641,198315.953,192836.375,184321.531,192458.281,182355.906,-0.002,0.999,0.175,-2.106,-0.244,-0.092,80.000,159824.000,1.000
192451.750,189633.453,205190.094,198300.031,192812.063,184271.813,192411.516,182349.828,-0.002,0.998,0.173,-1.923,-0.336,-0.092,80.000,159825.000,1.000
192428.953,189605.469,205161.672,198279.828,192794.266,184239.531,192386.844,182334.281,-0.002,0.999,0.172,-1.984,-0.397,0.000,80.000,159826.000,1.000
192407.938,189603.953,205166.141,198273.750,192788.641,184240.156,192381.828,182307.625,-0.002,0.998,0.175,-1.801,-0.488,0.031,80.000,159827.000,1.000
192415.813,189627.469,205195.813,198296.109,192807.766,184280.219,192415.266,182310.938,-0.002,0.997,0.174,-1.740,-0.458,0.061,80.000,159828.000,1.000
192438.250,189648.219,205215.219,198317.109,192824.125,184291.844,192429.125,182330.875,-0.005,0.998,0.172,-1.740,-0.519,0.031,80.000,159829.000,1.000
192437.531,189624.609,205189.922,198304.328,192814.109,184259.031,192409.547,182344.563,-0.004,0.999,0.173,-1.617,-0.549,-0.122,80.000,159830.000,1.000
192405.078,189581.250,205148.438,198265.250,192779.609,184211.547,192367.891,182310.219,-0.002,0.999,0.173,-1.617,-0.549,-0.122,80.000,159831.000,1.000
192385.938,189576.688,205151.734,198260.438,192768.969,184215.219,192360.828,182274.188,0.000,1.001,0.174,-1.556,-0.580,-0.183,80.000,159832.000,1.000
192405.531,189615.047,205189.828,198292.531,192790.328,184253.656,192393.906,182281.078,-0.001,1.001,0.175,-1.556,-0.610,-0.366,80.000,159833.000,1.000
192430.734,189640.078,205210.125,198313.625,192806.688,184266.094,192404.547,182305.391,-0.002,1.003,0.175,-1.404,-0.641,-0.275,80.000,159834.000,1.000
192428.328,189613.797,205183.922,198299.594,192795.703,184230.594,192375.750,182320.422,0.000,1.003,0.175,-1.404,-0.610,-0.427,80.000,159835.000,1.000
192399.438,189575.875,205143.516,198264.984,192765.125,184181.063,192337.219,182300.922,0.002,1.001,0.174,-1.465,-0.610,-0.519,80.000,159836.000,1.000
192382.719,189572.219,205146.016,198264.453,192759.484,184188.313,192343.469,182285.547,0.002,1.002,0.173,-1.495,-0.671,-0.549,80.000,159837.000,1.000
192388.531,189598.063,205175.516,198288.688,192784.781,184246.250,192397.750,182306.297,0.000,1.002,0.176,-1.465,-0.610,-0.549,80.000,159838.000,1.000
192415.094,189629.797,205202.078,198320.422,192810.453,184278.156,192411.688,182342.234,0.002,1.002,0.174,-1.373,-0.458,-0.458,80.000,159839.000,1.000
192410.266,189609.141,205175.609,198298.875,192799.547,184252.234,192385.859,182351.797,0.004,1.001,0.175,-1.343,-0.458,-0.488,80.000,159840.000,1.000
192378.516,189571.328,205136.453,198264.547,192775.125,184219.328,192366.000,182338.031,0.005,1.003,0.172,-1.221,-0.427,-0.427,80.000,159841.000,1.000
192353.750,189567.125,205134.844,198251.125,192766.641,184232.828,192375.578,182308.797,0.002,1.003,0.172,-1.190,-0.427,-0.366,80.000,159842.000,1.000
192374.234,189608.250,205174.813,198281.078,192795.609,184285.578,192413.844,182317.281,0.003,1.003,0.177,-1.221,-0.427,-0.397,80.000,159843.000,1.000
192402.844,189635.344,205198.859,198304.781,192817.328,184305.703,192431.000,182340.719,0.001,1.000,0.176,-1.190,-0.397,-0.427,80.000,159844.000,1.000
192398.734,189612.094,205171.406,198286.000,192807.938,184278.156,192414.828,182353.234,0.002,1.001,0.175,-1.160,-0.275,-0.488,80.000,159845.000,1.000
192370.391,189573.922,205132.516,198256.859,192781.219,184228.719,192377.813,182332.844,0.003,1.000,0.174,-1.129,-0.244,-0.610,80.000,159846.000,1.000
192360.547,189573.734,205141.109,198256.938,192780.766,184238.828,192388.531,182310.938,0.003,1.000,0.169,-0.977,-0.244,-0.549,80.000,159847.000,1.000
192382.281,189614.500,205180.172,198281.625,192803.109,184275.922,192410.625,182301.641,0.001,1.002,0.172,-1.038,-0.214,-0.610,80.000,159848.000,1.000
192417.688,189641.328,205211.203,198316.578,192829.484,184296.578,192427.156,182319.078,0.000,1.000,0.175,-1.038,0.000,-0.519,80.000,159849.000,1.000
192429.844,189628.188,205198.688,198315.594,192830.469,184269.844,192408.828,182342.766,-0.001,0.999,0.174,-1.068,-0.061,-0.580,80.000,159850.000,1.000
192400.156,189588.125,205159.609,198275.547,192802.938,184227.563,192378.438,182322.203,-0.001,1.000,0.173,-1.099,-0.153,-0.488,80.000,159851.000,1.000
192382.094,189586.250,205159.703,198267.047,192792.203,184229.875,192379.781,182296.188,0.000,1.001,0.172,-1.099,-0.183,-0.519,80.000,159852.000,1.000
192396.500,189613.969,205190.719,198290.734,192810.094,184273.688,192414.828,182306.297,-0.003,1.001,0.171,-1.099,-0.153,-0.641,80.000,159853.000,1.000
192421.344,189638.641,205210.578,198312.016,192827.250,184298.094,192438.156,182335.078,-0.002,1.001,0.169,-1.007,-0.214,-0.671,80.000,159854.000,1.000
192416.156,189614.500,205178.563,198290.031,192806.250,184258.484,192406.500,182340.625,-0.003,1.003,0.172,-1.038,-0.183,-0.824,80.000,159855.000,1.000
192385.313,189567.203,205133.406,198256.859,192766.641,184199.484,192349.375,182314.063,-0.004,1.005,0.170,-1.068,-0.122,-0.793,80.000,159856.000,1.000
192367.344,189566.766,205135.203,198255.781,192758.234,184209.938,192355.453,182291.000,-0.004,1.005,0.173,-1.038,-0.244,-0.916,80.000,159857.000,1.000
192373.250,189587.141,205158.625,198273.031,192770.484,184250.984,192385.594,182298.594,-0.003,1.005,0.171,-1.160,-0.366,-0.824,80.000,159858.000,1.000
192401.672,189612.813,205183.844,198300.938,192793.281,184281.109,192407.578,182332.578,-0.003,1.004,0.173,-1.190,-0.336,-0.854,80.000,159859.000,1.000
192394.438,189591.000,205155.938,198280.188,192781.219,184255.984,192386.656,182342.953,-0.003,1.002,0.171,-1.282,-0.397,-0.702,80.000,159860.000,1.000
192356.078,189547.813,205110.250,198239.328,192749.203,184211.906,192347.953,182320.422,0.000,1.001,0.170,-1.251,-0.427,-0.580,80.000,159861.000,1.000
192334.891,189546.109,205110.531,198233.344,192742.047,184214.594,192348.844,182295.203,0.000,1.003,0.168,-1.221,-0.458,-0.549,80.000,159862.000,1.000
192348.297,189577.219,205143.969,198262.391,192765.656,184255.625,192385.766,182307.453,0.000,1.004,0.166,-1.190,-0.397,-0.549,80.000,159863.000,1.000
192374.672,189607.797,205169.438,198289.844,192794.172,184293.359,192419.109,182337.844,-0.002,1.004,0.166,-1.099,-0.427,-0.580,80.000,159864.000,1.000
192379.328,189598.688,205151.203,198282.156,192794.531,184271.453,192402.656,182356.984,-0.003,1.002,0.165,-1.221,-0.366,-0.610,80.000,159865.000,1.000
192345.625,189550.938,205106.500,198237.625,192759.844,184215.047,192346.781,182321.484,-0.001,1.000,0.167,-1.190,-0.549,-0.641,80.000,159866.000,1.000
192338.203,189551.563,205117.594,198243.359,192761.547,184238.109,192364.484,182299.672,-0.003,0.999,0.167,-1.129,-0.549,-0.488,80.000,159867.000,1.000
192365.297,189591.625,205162.469,198283.766,192791.500,184278.781,192404.188,182316.750,-0.003,1.001,0.165,-1.099,-0.519,-0.580,80.000,159868.000,1.000
192387.641,189616.469,205183.125,198298.703,192811.250,184300.063,192429.391,182340.094,-0.003,1.000,0.166,-1.007,-0.488,-0.610,80.000,159869.000,1.000
192390.234,189604.938,205162.469,198282.422,192806.516,184276.469,192414.203,182352.875,-0.002,0.999,0.166,-1.038,-0.549,-0.580,80.000,159870.000,1.000
192365.375,189570.609,205126.703,198249.172,192778.703,184225.406,192362.156,182323.547,-0.004,0.998,0.168,-0.977,-0.549,-0.641,80.000,159871.000,1.000
192353.047,189570.781,205135.469,198251.047,192777.094,184233.719,192365.297,182304.500,-0.006,1.000,0.167,-0.977,-0.580,-0.671,80.000,159872.000,1.000
192369.141,189600.375,205172.484,198280.453,192801.953,184277.984,192407.672,182315.953,-0.004,1.002,0.166,-1.038,-0.641,-0.702,80.000,159873.000,1.000
192395.953,189625.953,205194.922,198301.281,192823.406,184307.125,192443.797,182343.125,-0.003,1.001,0.164,-0.977,-0.549,-0.824,80.000,159874.000,1.000
192393.000,189596.797,205165.594,198283.672,192807.766,184271.641,192417.859,182352.688,-0.005,1.003,0.167,-0.977,-0.671,-0.824,80.000,159875.000,1.000
192364.844,189552.906,205123.406,198255.781,192774.422,184216.828,192369.500,182326.859,-0.005,1.004,0.168,-0.916,-0.580,-0.824,80.000,159876.000,1.000
192345.266,189545.750,205121.438,198250.422,192762.078,184216.563,192362.609,182295.031,-0.006,1.005,0.170,-0.977,-0.702,-0.946,80.000,159877.000,1.000
192358.047,189577.766,205154.875,198276.516,192783.625,184260.281,192400.063,182304.234,-0.003,1.004,0.170,-1.160,-0.641,-1.007,80.000,159878.000,1.000
192386.656,189612.000,205181.328,198296.547,192809.109,184290.141,192433.063,182334.813,-0.002,1.005,0.166,-1.221,-0.702,-0.977,80.000,159879.000,1.000
192392.375,189599.844,205162.109,198283.406,192800.438,184254.641,192404.094,182349.828,-0.001,1.007,0.164,-1.160,-0.763,-0.977,80.000,159880.000,1.000
192373.969,189575.969,205132.969,198260.078,192780.500,184222.281,192373.875,182334.453,-0.001,1.009,0.164,-1.221,-0.763,-0.885,80.000,159881.000,1.000
192349.203,189569.625,205129.125,198246.750,192769.953,184237.922,192378.875,182299.406,-0.001,1.008,0.165,-1.312,-0.793,-0.854,80.000,159882.000,1.000
192355.813,189585.000,205151.297,198269.016,192777.813,184252.141,192390.766,182299.313,-0.001,1.008,0.164,-1.495,-0.641,-0.793,80.000,159883.000,1.000
192377.266,189604.500,205169.438,198289.219,192795.344,184271.641,192409.906,182324.078,0.000,1.005,0.166,-1.465,-0.641,-0.793,80.000,159884.000,1.000
192390.422,189597.156,205158.094,198287.875,192797.313,184250.984,192397.484,182348.313,-0.001,1.005,0.165,-1.587,-0.671,-0.702,80.000,159885.000,1.000
192357.328,189555.500,205114.281,198246.922,192766.547,184207.891,192361.172,182321.938,0.000,1.006,0.167,-1.648,-0.641,-0.641,80.000,159886.000,1.000
192328.359,189542.172,205104.266,198229.672,192749.469,184211.281,192358.766,182285.453,-0.002,1.004,0.167,-1.709,-0.824,-0.641,80.000,159887.000,1.000
192344.813,189572.125,205141.547,198267.578,192775.578,184261.984,192404.094,182302.891,-0.002,1.004,0.166,-1.831,-0.763,-0.610,80.000,159888.000,1.000
192369.219,189593.234,205164.969,198292.344,192795.156,184281.641,192421.969,182332.047,-0.003,1.002,0.166,-1.862,-0.610,-0.549,80.000,159889.000,1.000
192377.984,189588.313,205149.500,198282.875,192792.203,184257.516,192410.625,182357.703,-0.005,1.004,0.166,-1.862,-0.580,-0.519,80.000,159890.000,1.000
192358.672,189562.922,205117.047,198252.203,192765.750,184216.828,192366.625,182326.672,-0.005,1.004,0.168,-1.953,-0.549,-0.427,80.000,159891.000,1.000
192338.828,189558.359,205116.422,198240.313,192753.578,184226.484,192364.578,182290.375,-0.005,1.005,0.168,-2.014,-0.641,-0.427,80.000,159892.000,1.000
192355.813,189585.813,205152.719,198271.875,192777.813,184271.719,192403.734,182305.750,-0.004,1.004,0.167,-2.014,-0.702,-0.519,80.000,159893.000,1.000
192379.063,189605.297,205173.203,198290.922,192796.328,184292.203,192422.594,182326.406,-0.004,1.003,0.168,-2.136,-0.641,-0.427,80.000,159894.000,1.000
192378.875,189586.609,205148.250,198273.484,192785.234,184257.859,192395.594,182336.328,-0.005,1.003,0.167,-2.136,-0.641,-0.366,80.000,159895.000,1.000
192357.250,189559.250,205115.359,198241.922,192763.156,184223.891,192361.719,182315.766,-0.004,1.003,0.169,-2.228,-0.671,-0.275,80.000,159896.000,1.000
192340.344,189558.719,205119.547,198237.453,192756.000,184231.938,192359.656,182286.891,-0.004,1.004,0.167,-2.228,-0.610,-0.275,80.000,159897.000,1.000
192351.797,189580.625,205150.406,198265.344,192773.344,184272.078,192387.203,182290.641,-0.003,1.004,0.166,-2.167,-0.488,-0.366,80.000,159898.000,1.000
192381.297,189611.203,205177.484,198288.422,192797.750,184295.859,192419.297,182316.125,-0.002,1.003,0.167,-2.289,-0.488,-0.427,80.000,159899.000,1.000
192395.594,189603.688,205168.281,198290.375,192802.141,184276.188,192418.484,182343.219,0.000,1.002,0.168,-2.319,-0.488,-0.488,80.000,159900.000,1.000
192364.219,189559.250,205124.031,198247.469,192766.453,184215.391,192361.984,182314.516,-0.001,1.003,0.166,-2.258,-0.458,-0.580,80.000,159901.000,1.000
192349.734,189559.156,205129.844,198246.656,192759.219,184217.188,192352.500,182289.578,-0.002,1.003,0.167,-2.228,-0.458,-0.610,80.000,159902.000,1.000
192364.047,189593.234,205162.922,198274.375,192778.703,184261.172,192382.188,182297.172,-0.004,1.001,0.168,-2.106,-0.458,-0.641,80.000,159903.000,1.000
192387.828,189618.625,205182.938,198293.156,192797.578,184282.359,192412.234,182321.313,-0.002,1.001,0.170,-2.075,-0.397,-0.580,80.000,159904.000,1.000
192397.203,189606.281,205169.266,198287.969,192797.484,184262.063,192399.438,182343.219,-0.002,1.000,0.168,-2.136,-0.305,-0.671,80.000,159905.000,1.000
192368.156,189565.594,205127.688,198253.016,192768.063,184220.672,192363.500,182322.391,-0.001,0.999,0.173,-2.106,-0.275,-0.610,80.000,159906.000,1.000
192351.875,189562.109,205128.406,198246.656,192758.859,184219.688,192363.234,182295.375,-0.003,1.002,0.171,-2.136,-0.305,-0.519,80.000,159907.000,1.000
192368.781,189594.031,205163.906,198274.016,192777.016,184252.047,192386.656,182297.969,-0.003,1.002,0.171,-2.075,-0.336,-0.519,80.000,159908.000,1.000
192398.188,189629.438,205189.922,198297.094,192800.797,184286.391,192413.031,182317.281,-0.002,1.002,0.170,-2.014,-0.275,-0.519,80.000,159909.000,1.000
192403.641,189613.438,205170.703,198289.844,192796.766,184265.828,192400.875,182335.438,-0.003,1.000,0.168,-1.953,-0.214,-0.488,80.000,159910.000,1.000
192373.516,189571.500,205128.141,198255.875,192764.047,184212.625,192353.125,182312.734,-0.002,1.002,0.167,-1.953,-0.183,-0.519,80.000,159911.000,1.000
192359.125,189574.359,205133.234,198257.031,192761.188,184222.453,192359.484,182296.547,-0.002,1.003,0.171,-1.984,-0.183,-0.488,80.000,159912.000,1.000
192375.750,189604.766,205169.438,198281.797,192785.328,184268.063,192402.484,182310.141,-0.002,1.003,0.169,-1.953,-0.122,-0.519,80.000,159913.000,1.000
192397.750,189621.922,205187.500,198293.594,192800.250,184289.344,192411.969,182320.594,-0.004,1.003,0.169,-2.045,-0.153,-0.458,80.000,159914.000,1.000
192401.594,189608.156,205167.922,198283.938,192797.656,184271.359,192401.594,182339.109,-0.003,1.002,0.171,-2.045,-0.153,-0.397,80.000,159915.000,1.000
192369.500,189568.188,205127.063,198251.578,192771.469,184236.234,192373.250,182317.281,-0.005,1.002,0.169,-2.075,-0.275,-0.397,80.000,159916.000,1.000
192348.125,189558.359,205123.219,198240.484,192756.359,184221.391,192354.734,182281.703,-0.006,1.002,0.172,-2.136,-0.244,-0.427,80.000,159917.000,1.000
192358.938,189581.063,205152.359,198267.500,192772.547,184249.281,192378.438,182288.672,-0.005,1.004,0.171,-2.075,-0.214,-0.336,80.000,159918.000,1.000
192385.141,189612.000,205177.938,198298.063,192798.281,184287.453,192413.922,182318.094,-0.006,1.004,0.171,-2.106,-0.214,-0.366,80.000,159919.000,1.000
192390.500,189607.000,205162.828,198291.188,192799.813,184276.547,192411.250,182341.703,-0.009,1.002,0.171,-2.228,-0.275,-0.275,80.000,159920.000,1.000
192359.922,189566.141,205121.250,198253.813,192769.406,184224.516,192376.828,182321.750,-0.007,1.002,0.170,-2.228,-0.366,-0.305,80.000,159921.000,1.000
192333.547,189553.797,205113.391,198236.922,192751.078,184215.125,192350.719,182285.375,-0.006,1.005,0.170,-2.197,-0.427,-0.366,80.000,159922.000,1.000
192346.969,189583.297,205145.031,198263.375,192771.375,184254.297,192387.203,182293.859,-0.005,1.003,0.170,-2.258,-0.458,-0.427,80.000,159923.000,1.000
192373.516,189605.125,205168.734,198287.703,192794.438,184282.359,192418.047,182322.109,-0.005,1.003,0.171,-2.289,-0.488,-0.366,80.000,159924.000,1.000
192378.250,189594.031,205152.547,198279.031,192793.813,184269.938,192415.984,182342.766,-0.005,1.003,0.172,-2.167,-0.458,-0.305,80.000,159925.000,1.000
192352.328,189558.813,205113.563,198250.422,192764.219,184217.719,192367.609,182320.594,-0.004,1.003,0.170,-2.228,-0.427,-0.305,80.000,159926.000,1.000
192334.453,189554.250,205116.344,198252.391,192755.641,184213.516,192354.922,182294.313,-0.004,1.003,0.174,-2.197,-0.397,-0.275,80.000,159927.000,1.000
192345.438,189581.156,205146.375,198271.422,192772.094,184246.875,192382.281,182299.313,-0.006,1.003,0.173,-2.167,-0.397,-0.244,80.000,159928.000,1.000
192375.844,189607.531,205169.266,198289.484,192790.156,184268.594,192406.781,182321.750,-0.003,1.002,0.171,-2.106,-0.488,-0.214,80.000,159929.000,1.000
192378.438,189593.406,205145.031,198270.625,192780.766,184245.609,192388.531,182333.297,-0.005,1.003,0.171,-2.014,-0.580,-0.092,80.000,159930.000,1.000
192347.859,189554.063,205102.563,198228.781,192750.641,184200.734,192348.219,182308.250,-0.006,1.002,0.171,-2.075,-0.610,-0.122,80.000,159931.000,1.000
192338.922,189555.859,205113.828,198238.797,192752.875,184212.719,192359.297,182292.438,-0.007,1.003,0.170,-2.106,-0.732,-0.092,80.000,159932.000,1.000
192366.094,189600.297,205160.234,198280.016,192787.656,184272.969,192407.219,182308.703,-0.008,1.002,0.169,-2.045,-0.793,-0.061,80.000,159933.000,1.000
192395.594,189635.969,205189.828,198302.188,192813.750,184307.578,192431.984,182335.172,-0.006,1.002,0.170,-1.984,-0.824,0.061,80.000,159934.000,1.000
192389.969,189608.969,205160.500,198279.563,192796.047,184262.344,192404.359,182340.438,-0.005,1.002,0.170,-2.075,-0.793,0.031,80.000,159935.000,1.000
192375.297,189580.703,205132.078,198258.375,192778.266,184227.828,192375.578,182327.750,-0.004,1.003,0.170,-2.075,-0.824,-0.061,80.000,159936.000,1.000
192354.563,189573.563,205131.891,198247.375,192769.406,184234.438,192375.938,182300.203,-0.004,1.005,0.171,-2.075,-0.763,-0.092,80.000,159937.000,1.000
192361.453,189596.172,205158.891,198263.297,192780.406,184260.094,192400.156,182299.313,-0.001,1.002,0.169,-2.075,-0.793,-0.092,80.000,159938.000,1.000
192387.109,189616.922,205182.594,198290.031,192799.891,184273.250,192415.000,182323.906,-0.002,1.000,0.168,-2.014,-0.763,-0.031,80.000,159939.000,1.000
192394.797,189608.344,205169.000,198288.766,192805.078,184264.750,192417.766,182356.531,0.000,0.999,0.169,-2.106,-0.610,0.061,80.000,159940.000,1.000
192363.234,189567.750,205126.969,198255.781,192778.078,184223.891,192382.281,182342.234,0.000,0.997,0.169,-2.014,-0.549,0.244,80.000,159941.000,1.000
192339.813,189555.234,205119.203,198239.594,192755.641,184217.813,192358.141,182286.625,0.001,0.997,0.168,-2.045,-0.580,0.275,80.000,159942.000,1.000
192357.063,189583.391,205152.719,198269.375,192770.297,184250.266,192380.125,182283.313,0.000,1.000,0.167,-1.953,-0.580,0.244,80.000,159943.000,1.000
192394.266,189619.609,205187.766,198305.938,192802.313,184291.578,192414.109,182319.703,0.000,0.999,0.166,-1.892,-0.458,0.244,80.000,159944.000,1.000
192398.375,189606.547,205168.547,198289.125,192794.891,184262.156,192395.688,182337.844,-0.002,0.999,0.167,-1.831,-0.397,0.244,80.000,159945.000,1.000
192363.328,189557.203,205120.094,198241.297,192758.328,184206.453,192358.141,182311.031,-0.004,1.000,0.167,-1.862,-0.183,0.244,80.000,159946.000,1.000
192349.203,189554.250,205121.344,198238.172,192750.359,184207.797,192360.281,182281.875,-0.005,1.001,0.168,-1.892,-0.183,0.214,80.000,159947.000,1.000
192365.656,189587.859,205154.953,198265.891,192766.813,184237.750,192368.063,182284.828,-0.003,0.999,0.168,-1.801,-0.214,0.153,80.000,159948.000,1.000
192394.344,189616.031,205183.563,198292.891,192793.375,184268.500,192395.781,182312.734,-0.002,1.000,0.169,-1.770,-0.183,0.153,80.000,159949.000,1.000
192401.047,189602.797,205167.031,198279.109,192796.141,184257.156,192395.688,182335.344,0.000,1.002,0.166,-1.831,-0.092,0.031,80.000,159950.000,1.000
192375.297,189563.453,205125.094,198242.547,192766.641,184202.344,192350.531,182312.641,0.000,1.001,0.169,-1.740,-0.122,0.031,80.000,159951.000,1.000
192355.281,189558.359,205125.359,198238.797,192759.844,184205.563,192349.641,182288.047,0.002,1.001,0.169,-1.740,-0.092,0.061,80.000,159952.000,1.000
192367.172,189592.609,205162.016,198274.469,192785.594,184255.813,192393.813,182299.313,0.002,1.001,0.167,-1.801,-0.061,0.092,80.000,159953.000,1.000
192407.484,189637.844,205203.234,198318.453,192825.109,184304.453,192441.281,182340.438,0.002,1.002,0.171,-1.770,0.092,-0.031,80.000,159954.000,1.000
192408.563,189623.453,205180.344,198298.969,192815.016,184273.063,192413.297,182352.422,0.001,1.004,0.172,-1.831,0.122,-0.122,80.000,159955.000,1.000
192374.594,189579.734,205137.078,198260.344,192784.781,184228.266,192376.828,182332.484,-0.001,1.004,0.172,-1.953,0.092,-0.122,80.000,159956.000,1.000
192355.094,189572.219,205136.359,198252.922,192779.250,184241.594,192385.141,182308.797,-0.001,1.006,0.173,-2.014,0.183,-0.244,80.000,159957.000,1.000
192364.219,189598.328,205164.609,198271.250,192797.844,184287.734,192423.141,182314.516,-0.002,1.008,0.175,-1.953,0.122,-0.336,80.000,159958.000,1.000
192388.453,189621.563,205182.406,198287.609,192811.703,184305.078,192436.547,182335.266,-0.003,1.008,0.173,-2.075,0.122,-0.397,80.000,159959.000,1.000
192392.109,189608.516,205159.344,198275.547,192800.969,184277.625,192411.688,182346.438,-0.003,1.007,0.174,-2.197,0.214,-0.458,80.000,159960.000,1.000
192362.969,189565.063,205114.641,198237.094,192766.109,184229.703,192366.984,182320.953,-0.002,1.007,0.171,-2.258,0.092,-0.488,80.000,159961.000,1.000
192339.547,189553.172,205108.016,198228.781,192753.313,184236.406,192374.953,182292.250,0.000,1.006,0.173,-2.411,0.122,-0.580,80.000,159962.000,1.000
192357.953,189586.250,205146.203,198266.234,192776.391,184282.984,192406.953,182299.578,0.000,1.004,0.176,-2.411,0.000,-0.458,80.000,159963.000,1.000
192398.281,189628.000,205185.094,198306.656,192805.797,184306.859,192425.188,182332.125,-0.003,1.002,0.176,-2.380,-0.061,-0.427,80.000,159964.000,1.000
192401.234,189615.484,205166.672,198294.938,192799.188,184275.922,192411.688,182347.156,-0.002,1.002,0.174,-2.350,-0.092,-0.397,80.000,159965.000,1.000
192365.297,189569.266,205118.031,198249.344,192764.500,184225.672,192369.219,182322.922,-0.002,1.001,0.173,-2.441,-0.122,-0.488,80.000,159966.000,1.000
192352.781,189567.391,205122.234,198252.297,192763.594,184241.953,192379.156,182302.719,-0.002,1.001,0.174,-2.472,-0.183,-0.366,80.000,159967.000,1.000
192360.547,189589.656,205147.984,198270.266,192774.063,184265.469,192389.781,182298.688,0.000,1.001,0.175,-2.441,-0.275,-0.336,80.000,159968.000,1.000
192380.672,189608.516,205165.688,198280.813,192787.203,184282.984,192401.594,182311.391,0.000,1.000,0.174,-2.380,-0.183,-0.305,80.000,159969.000,1.000
192382.453,189591.078,205144.500,198264.984,192778.266,184247.313,192374.594,182318.359,-0.001,1.000,0.171,-2.472,-0.183,-0.214,80.000,159970.000,1.000
192354.828,189548.703,205102.125,198229.313,192749.109,184198.406,192337.031,182296.016,-0.003,0.999,0.168,-2.380,-0.305,-0.092,80.000,159971.000,1.000
192332.125,189536.813,205097.922,198221.453,192739.188,184203.234,192345.078,182269.453,-0.001,0.999,0.171,-2.289,-0.275,-0.031,80.000,159972.000,1.000
192346.969,189564.797,205131.172,198252.031,192758.594,184240.969,192376.016,182276.078,-0.003,0.999,0.173,-2.106,-0.397,0.061,80.000,159973.000,1.000
192383.266,189605.031,205166.141,198283.859,192786.484,184274.047,192406.234,182304.063,-0.005,0.999,0.176,-2.106,-0.427,0.031,80.000,159974.000,1.000
192394.266,189602.172,205155.859,198275.000,192784.516,184254.469,192390.766,182320.234,-0.004,1.000,0.175,-2.045,-0.397,0.153,80.000,159975.000,1.000
192367.531,189566.141,205116.344,198240.484,192758.859,184218.078,192359.391,182305.125,-0.005,0.999,0.172,-1.953,-0.488,0.183,80.000,159976.000,1.000
192343.750,189559.875,205114.016,198232.625,192751.172,184229.172,192362.969,182281.609,-0.005,0.999,0.173,-1.801,-0.488,0.244,80.000,159977.000,1.000
192353.484,189584.203,205143.609,198257.125,192765.125,184251.344,192380.844,182284.031,-0.005,1.000,0.175,-1.709,-0.488,0.214,80.000,159978.000,1.000
192376.375,189611.203,205169.172,198283.672,192788.984,184277.359,192411.688,182312.188,-0.005,1.001,0.174,-1.770,-0.580,0.214,80.000,159979.000,1.000
192383.078,189600.641,205155.406,198280.375,192789.438,184255.188,192388.813,182337.500,-0.004,1.000,0.175,-1.740,-0.610,0.183,80.000,159980.000,1.000
192353.219,189565.516,205116.516,198247.563,192763.328,184212.172,192351.344,182325.953,-0.005,1.000,0.177,-1.709,-0.702,0.122,80.000,159981.000,1.000
192332.203,189561.938,205115.438,198236.828,192753.672,184222.453,192357.781,182288.141,-0.003,1.001,0.176,-1.709,-0.671,0.092,80.000,159982.000,1.000
192338.922,189585.984,205142.891,198254.438,192768.344,184258.672,192389.781,182287.688,-0.003,1.000,0.177,-1.770,-0.641,0.000,80.000,159983.000,1.000
192355.719,189598.500,205154.422,198266.594,192774.859,184257.156,192388.984,182302.266,0.000,1.000,0.176,-1.709,-0.702,0.061,80.000,159984.000,1.000
192362.875,189584.906,205137.250,198263.375,192772.453,184237.922,192377.625,182322.734,-0.002,0.998,0.175,-1.526,-0.702,-0.092,80.000,159985.000,1.000
192343.828,189552.906,205105.609,198239.234,192755.469,184216.734,192362.250,182315.328,-0.001,1.001,0.171,-1.465,-0.732,-0.092,80.000,159986.000,1.000
192339.813,189554.875,205115.797,198246.219,192754.656,184220.313,192364.578,182294.844,0.002,1.001,0.172,-1.465,-0.671,0.000,80.000,159987.000,1.000
192342.672,189574.359,205137.250,198259.719,192764.219,184251.422,192388.172,182293.500,0.001,1.000,0.173,-1.404,-0.549,-0.061,80.000,159988.000,1.000
192369.500,189606.734,205164.172,198283.047,192787.031,184284.156,192417.953,182323.906,0.003,1.000,0.176,-1.434,-0.641,-0.153,80.000,159989.000,1.000
192378.078,189596.094,205149.422,198275.547,192782.281,184257.859,192398.734,182342.500,0.005,0.997,0.173,-1.343,-0.580,-0.244,80.000,159990.000,1.000
192353.844,189555.594,205109.188,198236.203,192748.672,184207.531,192347.141,182309.422,0.003,0.998,0.171,-1.434,-0.580,-0.214,80.000,159991.000,1.000
192333.641,189549.781,205106.328,198224.938,192738.297,184216.016,192349.906,182277.688,0.001,0.999,0.170,-1.251,-0.519,-0.061,80.000,159992.000,1.000
192344.641,189573.469,205136.453,198250.063,192755.641,184253.391,192380.578,182281.438,0.002,1.000,0.168,-1.190,-0.366,-0.061,80.000,159993.000,1.000
192367.609,189598.766,205157.188,198264.359,192774.422,184279.141,192407.484,182304.953,0.002,1.000,0.172,-1.160,-0.275,-0.183,80.000,159994.000,1.000
192380.484,189592.609,205143.250,198260.969,192773.172,184262.422,192393.906,182323.547,0.002,1.002,0.171,-1.160,-0.336,-0.153,80.000,159995.000,1.000
192348.922,189542.094,205093.719,198222.156,192734.984,184201.266,192338.828,182294.938,0.002,1.004,0.171,-1.221,-0.244,-0.183,80.000,159996.000,1.000
192339.984,189545.656,205105.344,198234.688,192739.813,184214.328,192350.891,182284.469,0.000,1.003,0.169,-1.312,-0.214,-0.122,80.000,159997.000,1.000
192352.234,189572.938,205140.391,198252.656,192762.969,184259.203,192391.750,182291.094,0.001,1.003,0.169,-1.251,-0.153,-0.122,80.000,159998.000,1.000
192376.734,189602.531,205167.828,198268.828,192784.344,184280.844,192411.250,182311.922,-0.001,1.003,0.170,-1.221,-0.092,-0.153,80.000,159999.000,1.000
192386.219,189596.094,205156.844,198262.672,192781.844,184251.781,192382.281,182330.516,0.001,1.002,0.171,-1.282,-0.122,-0.214,80.000,160000.000,1.000
192363.234,189564.172,205121.516,198234.141,192757.703,184211.375,192350.000,182309.328,-0.001,1.002,0.172,-1.190,-0.061,-0.366,80.000,160001.000,1.000
192346.422,189555.672,205124.109,198235.750,192751.969,184210.563,192354.031,182284.297,-0.002,1.002,0.171,-1.221,-0.092,-0.397,80.000,160002.000,1.000
192361.094,189590.281,205158.000,198264.359,192772.453,184249.281,192378.250,182286.891,-0.003,1.001,0.168,-1.312,-0.092,-0.488,80.000,160003.000,1.000
192378.172,189610.297,205171.859,198276.172,192786.313,184271.016,192392.563,182302.000,-0.003,1.000,0.170,-1.282,-0.244,-0.580,80.000,160004.000,1.000
192386.922,189603.156,205157.109,198272.141,192790.875,184266.453,192398.375,182329.984,-0.002,1.003,0.169,-1.221,-0.275,-0.641,80.000,160005.000,1.000
192364.578,189566.313,205119.906,198246.750,192767.359,184229.609,192362.344,182315.672,-0.005,1.004,0.169,-1.343,-0.244,-0.580,80.000,160006.000,1.000
192343.125,189550.219,205113.750,198236.297,192748.578,184218.703,192347.594,182273.656,-0.006,1.005,0.167,-1.282,-0.397,-0.641,80.000,160007.000,1.000
192368.516,189592.953,205160.328,198271.688,192776.391,184268.328,192387.469,182284.656,-0.005,1.003,0.167,-1.282,-0.366,-0.671,80.000,160008.000,1.000
192388.719,189609.766,205179.641,198285.828,192789.703,184281.734,192401.859,182308.531,-0.003,1.003,0.169,-1.343,-0.397,-0.549,80.000,160009.000,1.000
192393.000,189596.359,205159.609,198270.000,192779.250,184252.406,192384.063,182320.328,-0.003,1.001,0.169,-1.465,-0.519,-0.580,80.000,160010.000,1.000
192370.297,189567.750,205123.125,198238.969,192753.047,184211.641,192347.859,182302.172,-0.001,1.000,0.169,-1.495,-0.488,-0.549,80.000,160011.000,1.000
192350.000,189558.531,205119.469,198231.188,192740.359,184212.719,192341.156,182271.953,-0.003,1.002,0.167,-1.404,-0.549,-0.580,80.000,160012.000,1.000
192363.063,189587.234,205154.953,198266.328,192764.219,184259.125,192382.281,182283.484,-0.002,1.000,0.165,-1.251,-0.549,-0.458,80.000,160013.000,1.000
192397.922,189628.719,205190.813,198298.875,192798.922,184305.703,192423.672,182320.328,-0.002,1.003,0.167,-1.160,-0.580,-0.458,80.000,160014.000,1.000
192394.609,189606.734,205164.969,198283.234,192789.344,184275.297,192400.969,182335.797,-0.001,1.001,0.167,-1.251,-0.732,-0.397,80.000,160015.000,1.000
192359.844,189557.375,205112.844,198233.969,192751.703,184212.891,192352.859,182310.219,-0.002,1.002,0.166,-1.099,-0.793,-0.275,80.000,160016.000,1.000
192342.938,189558.984,205112.844,198228.781,192744.641,184218.969,192355.188,182284.125,-0.002,1.003,0.168,-1.221,-0.824,-0.336,80.000,160017.000,1.000
192359.750,189593.938,205150.313,198256.234,192770.484,184274.141,192402.656,182291.984,-0.003,1.002,0.168,-1.282,-0.793,-0.305,80.000,160018.000,1.000
192381.391,189613.703,205171.406,198273.656,192790.156,184310.797,192431.453,182309.781,-0.002,1.002,0.168,-1.190,-0.824,-0.305,80.000,160019.000,1.000
192391.484,189600.828,205152.016,198265.891,192774.688,184252.688,192369.672,182314.063,-0.004,1.005,0.168,-1.221,-0.824,-0.336,80.000,160020.000,1.000
192374.953,189572.391,205117.859,198237.906,192751.531,184210.844,192335.781,182301.188,-0.004,1.001,0.168,-1.404,-0.824,-0.427,80.000,160021.000,1.000
192357.516,189563.984,205115.531,198227.625,192740.797,184210.297,192337.672,182273.391,-0.005,1.001,0.166,-1.312,-0.793,-0.519,80.000,160022.000,1.000
192373.875,189592.781,205152.281,198263.641,192764.938,184255.188,192376.906,182284.391,-0.001,1.002,0.165,-1.343,-0.793,-0.488,80.000,160023.000,1.000
192401.141,189620.672,205181.063,198296.188,192795.078,184294.438,192419.109,182317.906,-0.003,1.003,0.167,-1.343,-0.854,-0.580,80.000,160024.000,1.000
192409.094,189609.766,205164.344,198286.453,192794.000,184274.141,192410.438,182339.813,-0.003,1.002,0.165,-1.312,-0.916,-0.702,80.000,160025.000,1.000
192386.297,189578.391,205125.813,198249.344,192765.750,184225.406,192359.391,182317.281,-0.004,1.004,0.167,-1.434,-0.854,-0.732,80.000,160026.000,1.000
192362.875,189567.828,205118.484,198237.188,192751.703,184228.891,192352.859,182283.047,-0.004,1.007,0.171,-1.373,-0.885,-0.854,80.000,160027.000,1.000
192381.203,189599.219,205154.516,198269.016,192777.453,184276.641,192401.047,182299.313,-0.001,1.004,0.168,-1.373,-0.763,-0.885,80.000,160028.000,1.000
192408.563,189631.047,205179.547,198293.594,192795.875,184294.797,192408.656,182317.469,0.000,1.003,0.167,-1.587,-0.885,-0.763,80.000,160029.000,1.000
192430.469,189631.672,205172.313,198300.938,192798.109,184271.906,192391.219,182341.063,-0.001,1.002,0.167,-1.556,-0.854,-0.793,80.000,160030.000,1.000
192405.703,189588.313,205130.188,198266.156,192767.719,184222.453,192354.922,182321.750,0.000,1.003,0.169,-1.526,-0.793,-0.702,80.000,160031.000,1.000
192392.469,189579.375,205130.188,198251.125,192755.469,184214.766,192347.672,182286.891,0.000,1.003,0.168,-1.587,-0.793,-0.641,80.000,160032.000,1.000
192409.016,189609.594,205168.375,198280.641,192776.469,184254.922,192380.406,182293.500,0.002,1.003,0.168,-1.648,-0.854,-0.519,80.000,160033.000,1.000
192442.094,189638.563,205198.953,198306.750,192801.594,184288.719,192414.906,182325.875,0.003,1.005,0.166,-1.617,-0.763,-0.519,80.000,160034.000,1.000
192461.844,189640.172,205191.797,198304.953,192806.875,184285.047,192422.063,182353.594,0.003,1.005,0.167,-1.678,-0.702,-0.610,80.000,160035.000,1.000
192440.750,189604.500,205154.953,198269.016,192780.047,184247.141,192387.547,182330.078,-0.002,1.003,0.164,-1.801,-0.580,-0.641,80.000,160036.000,1.000
192422.063,189585.531,205144.500,198249.969,192751.266,184211.281,192337.031,182280.625,-0.001,1.006,0.168,-1.801,-0.641,-0.519,80.000,160037.000,1.000
192439.047,189619.781,205178.828,198279.563,192772.719,184254.016,192368.781,182287.422,0.000,1.003,0.166,-1.801,-0.671,-0.397,80.000,160038.000,1.000
192459.969,189646.328,205201.625,198301.641,192793.281,184285.313,192392.297,182306.469,0.000,1.003,0.169,-1.923,-0.610,-0.214,80.000,160039.000,1.000
192475.266,189648.750,205196.891,198307.094,192804.016,184277.719,192397.391,182335.609,-0.002,1.002,0.166,-1.923,-0.610,-0.153,80.000,160040.000,1.000
192446.391,189605.469,205152.188,198264.719,192772.453,184222.813,192352.234,182312.109,-0.002,1.001,0.168,-1.862,-0.610,-0.275,80.000,160041.000,1.000
192436.547,189610.578,205160.688,198270.984,192774.063,184230.500,192362.516,182297.344,-0.004,1.003,0.166,-1.831,-0.580,-0.275,80.000,160042.000,1.000
192455.688,189651.609,205200.297,198303.078,192804.906,184286.469,192407.141,182313.266,-0.003,1.004,0.169,-1.892,-0.580,-0.244,80.000,160043.000,1.000
192476.609,189670.750,205218.438,198313.891,192821.719,184311.875,192426.453,182330.250,-0.002,1.002,0.171,-1.862,-0.458,-0.122,80.000,160044.000,1.000
192480.813,189653.750,205200.922,198305.672,192818.500,184291.391,192417.500,182351.172,-0.001,1.002,0.167,-1.801,-0.458,-0.153,80.000,160045.000,1.000
192448.438,189609.047,205154.250,198266.781,192788.000,184242.844,192378.438,182332.844,-0.004,1.001,0.169,-1.831,-0.397,-0.183,80.000,160046.000,1.000
192425.016,189592.328,205143.688,198253.094,192771.203,184238.828,192375.578,182301.375,-0.003,1.002,0.167,-1.831,-0.427,-0.214,80.000,160047.000,1.000
192444.500,189628.984,205183.484,198289.391,192796.406,184283.172,192405.250,182313.359,-0.002,1.001,0.171,-1.770,-0.458,-0.214,80.000,160048.000,1.000
192468.109,189658.766,205211.281,198312.828,192817.953,184295.953,192421.625,182344.016,0.000,1.002,0.170,-1.770,-0.366,-0.183,80.000,160049.000,1.000
192469.359,189644.188,205190.094,198296.547,192808.297,184271.281,192401.141,182350.813,-0.001,1.002,0.171,-1.770,-0.275,-0.183,80.000,160050.000,1.000
192444.594,189602.438,205150.844,198267.406,192779.422,184227.375,192363.859,182330.609,0.000,1.001,0.167,-1.770,-0.183,-0.244,80.000,160051.000,1.000
192429.125,189598.141,205153.266,198264.813,192769.672,184230.328,192353.578,182300.391,0.001,1.002,0.169,-1.801,-0.214,-0.366,80.000,160052.000,1.000
192443.438,189629.891,205188.672,198290.734,192788.188,184270.109,192388.453,182300.297,0.001,1.002,0.170,-1.648,-0.153,-0.366,80.000,160053.000,1.000
192471.234,189655.813,205212.984,198316.219,192808.391,184298.453,192415.266,182325.250,0.000,1.000,0.168,-1.678,-0.061,-0.305,80.000,160054.000,1.000
192485.719,189652.234,205203.688,198311.656,192810.891,184285.047,192402.750,182341.063,0.000,1.000,0.168,-1.648,-0.061,-0.336,80.000,160055.000,1.000
192458.453,189609.672,205162.828,198275.547,192779.328,184228.453,192349.906,182315.047,0.000,1.001,0.165,-1.587,0.000,-0.458,80.000,160056.000,1.000
192434.766,189598.500,205157.828,198260.609,192766.641,184218.703,192343.563,182286.625,0.000,1.001,0.167,-1.526,0.000,-0.397,80.000,160057.000,1.000
192438.609,189620.672,205182.859,198274.203,192780.766,184250.625,192379.156,182291.813,0.001,0.999,0.167,-1.434,0.031,-0.488,80.000,160058.000,1.000
192464.719,189649.906,205209.047,198297.891,192803.656,184281.922,192411.781,182316.297,-0.001,0.999,0.168,-1.465,0.031,-0.549,80.000,160059.000,1.000
192476.063,189650.266,205200.375,198300.219,192803.203,184262.063,192391.844,182333.375,-0.002,1.001,0.168,-1.495,0.122,-0.610,80.000,160060.000,1.000
192458.453,189617.094,205165.063,198275.891,192781.391,184222.813,192358.766,182320.328,-0.001,1.001,0.171,-1.312,0.122,-0.610,80.000,160061.000,1.000
192437.625,189605.297,205160.953,198267.938,192773.438,184228.719,192358.578,182294.578,-0.001,1.001,0.171,-1.343,0.092,-0.519,80.000,160062.000,1.000
192438.422,189623.000,205185.719,198286.172,192789.438,184269.125,192390.234,182298.422,-0.002,1.001,0.172,-1.343,0.000,-0.519,80.000,160063.000,1.000
192464.891,189657.688,205216.656,198311.578,192818.234,184298.813,192417.766,182329.000,-0.003,1.000,0.175,-1.404,0.092,-0.488,80.000,160064.000,1.000
192470.344,189648.219,205201.625,198304.500,192819.031,184284.156,192410.000,182351.703,-0.003,1.004,0.173,-1.404,-0.031,-0.397,80.000,160065.000,1.000
192437.172,189601.719,205151.734,198261.953,192782.828,184231.766,192368.063,182327.750,-0.004,1.004,0.172,-1.404,-0.092,-0.488,80.000,160066.000,1.000
192420.719,189598.141,205154.422,198258.281,192777.641,184237.219,192372.625,182306.016,-0.006,1.005,0.173,-1.404,0.000,-0.519,80.000,160067.000,1.000
192438.063,189632.563,205197.609,198296.109,192807.141,184288.000,192415.531,182322.109,-0.006,1.005,0.170,-1.526,-0.092,-0.549,80.000,160068.000,1.000
192471.328,189670.203,205231.578,198331.156,192835.484,184318.313,192442.266,182354.844,-0.006,1.006,0.171,-1.556,-0.122,-0.580,80.000,160069.000,1.000
192477.938,189659.203,205214.766,198323.641,192829.141,184298.547,192421.703,182364.578,-0.005,1.006,0.171,-1.617,-0.183,-0.580,80.000,160070.000,1.000
192439.500,189608.156,205162.016,198271.344,192785.500,184240.516,192370.125,182327.125,-0.005,1.006,0.169,-1.648,-0.183,-0.610,80.000,160071.000,1.000
192414.828,189592.516,205154.250,198259.719,192769.766,184239.266,192364.578,182293.422,-0.005,1.004,0.167,-1.709,-0.336,-0.580,80.000,160072.000,1.000
192428.500,189625.594,205189.563,198293.875,192791.500,184281.734,192398.375,182302.531,-0.006,1.002,0.170,-1.648,-0.305,-0.641,80.000,160073.000,1.000
192454.250,189656.344,205218.703,198318.641,192815.984,184303.375,192425.375,182332.313,-0.004,1.008,0.171,-1.740,-0.366,-0.580,80.000,160074.000,1.000
192452.375,189635.156,205194.297,198294.766,192801.953,184262.344,192391.219,182339.547,-0.005,1.007,0.173,-1.801,-0.458,-0.519,80.000,160075.000,1.000
192436.375,189603.234,205161.750,198271.063,192782.375,184223.438,192362.875,182325.328,-0.005,1.008,0.173,-1.740,-0.519,-0.610,80.000,160076.000,1.000
192421.969,189597.344,205164.078,198270.438,192778.703,184234.359,192370.125,182304.063,-0.003,1.006,0.172,-1.831,-0.580,-0.549,80.000,160077.000,1.000
192430.469,189623.531,205193.766,198287.609,192794.172,184279.063,192401.141,182304.500,-0.004,1.006,0.173,-1.831,-0.519,-0.610,80.000,160078.000,1.000
192457.922,189656.438,205224.969,198316.219,192823.953,184324.391,192435.203,182336.234,-0.003,1.006,0.172,-1.892,-0.641,-0.427,80.000,160079.000,1.000
192458.188,189636.766,205201.984,198306.109,192812.766,184274.141,192405.250,182345.984,-0.004,1.003,0.167,-1.984,-0.702,-0.366,80.000,160080.000,1.000
192432.797,189597.703,205158.984,198268.922,192780.234,184214.063,192348.578,182320.141,-0.005,1.002,0.168,-1.923,-0.671,-0.305,80.000,160081.000,1.000
192414.203,189593.766,205159.156,198262.219,192778.344,184233.547,192366.547,182299.141,-0.004,1.003,0.169,-1.984,-0.702,-0.305,80.000,160082.000,1.000
192419.563,189618.438,205187.234,198284.391,192795.703,184275.297,192397.828,182302.453,-0.005,1.002,0.174,-1.953,-0.732,-0.275,80.000,160083.000,1.000
192437.625,189646.063,205208.250,198307.375,192816.531,184307.047,192419.297,182328.906,-0.005,1.001,0.169,-1.892,-0.702,-0.244,80.000,160084.000,1.000
192447.094,189647.406,205201.188,198312.203,192829.047,184299.969,192431.719,182371.375,-0.005,1.001,0.167,-1.862,-0.854,-0.275,80.000,160085.000,1.000
192410.000,189597.156,205151.391,198270.078,192794.531,184236.047,192375.938,182349.828,-0.005,1.001,0.170,-1.801,-0.916,-0.183,80.000,160086.000,1.000
192383.078,189581.969,205141.734,198250.953,192778.984,184230.328,192367.344,182314.344,-0.005,1.003,0.169,-1.709,-0.885,-0.122,80.000,160087.000,1.000
192399.438,189614.688,205178.297,198280.188,192801.156,184271.719,192403.469,182317.641,-0.005,1.003,0.169,-1.801,-0.916,-0.183,80.000,160088.000,1.000
192425.813,189644.719,205205.391,198303.609,192822.156,184300.688,192432.250,182335.969,-0.002,1.005,0.171,-1.709,-0.885,-0.214,80.000,160089.000,1.000
192437.797,189641.234,205195.109,198297.984,192821.625,184288.719,192417.953,182345.547,0.000,1.004,0.171,-1.740,-0.885,-0.183,80.000,160090.000,1.000
192418.938,189608.063,205160.953,198266.516,192793.281,184232.109,192370.203,182324.172,0.001,1.001,0.168,-1.801,-0.763,-0.153,80.000,160091.000,1.000
192403.016,189599.219,205157.375,198256.500,192776.297,184221.750,192355.641,182290.828,0.003,0.999,0.167,-1.770,-0.793,-0.153,80.000,160092.000,1.000
192415.000,189629.344,205187.328,198276.875,192790.156,184257.328,192387.828,182291.266,0.003,1.000,0.167,-1.678,-0.671,-0.214,80.000,160093.000,1.000
192434.844,189646.422,205207.359,198298.781,192808.219,184294.969,192424.484,182317.563,0.003,1.000,0.168,-1.617,-0.580,-0.122,80.000,160094.000,1.000
192445.047,189634.172,205192.781,198299.953,192804.813,184275.484,192410.625,182336.781,0.003,1.000,0.167,-1.587,-0.488,-0.031,80.000,160095.000,1.000
192420.281,189597.703,205150.219,198261.234,192774.781,184227.281,192365.016,182316.750,0.002,0.999,0.165,-1.495,-0.305,-0.122,80.000,160096.000,1.000
192389.438,189571.047,205133.234,198233.875,192750.359,184219.234,192350.719,182277.594,0.002,1.000,0.167,-1.465,-0.244,-0.244,80.000,160097.000,1.000
192400.875,189597.422,205168.109,198263.016,192770.031,184258.406,192383.531,182286.359,0.001,1.000,0.169,-1.526,-0.092,-0.275,80.000,160098.000,1.000
192430.641,189628.359,205198.953,198295.125,192796.234,184286.391,192414.547,182318.813,0.001,1.000,0.174,-1.495,-0.092,-0.275,80.000,160099.000,1.000
192443.516,189630.688,205189.563,198291.625,192799.094,184271.359,192408.563,182345.094,0.001,1.002,0.171,-1.495,0.031,-0.275,80.000,160100.000,1.000
192414.375,189583.297,205144.953,198253.641,192766.547,184219.156,192364.125,182327.391,0.001,1.003,0.170,-1.526,0.061,-0.336,80.000,160101.000,1.000
192395.594,189570.609,205141.906,198248.625,192754.563,184215.578,192356.531,182303.156,0.001,1.002,0.168,-1.556,0.244,-0.366,80.000,160102.000,1.000
192400.516,189590.094,205168.375,198274.375,192770.578,184252.953,192388.172,182308.703,0.001,1.003,0.169,-1.648,0.305,-0.397,80.000,160103.000,1.000
192425.281,189616.656,205195.641,198306.031,192795.609,184277.719,192417.859,182335.172,0.002,1.003,0.169,-1.617,0.305,-0.427,80.000,160104.000,1.000
192434.313,189615.047,205184.906,198298.781,192797.750,184267.078,192401.328,182347.422,0.002,1.003,0.166,-1.648,0.275,-0.397,80.000,160105.000,1.000
192403.281,189571.234,205138.594,198256.938,192765.125,184210.125,192347.594,182316.750,0.001,1.002,0.168,-1.678,0.244,-0.427,80.000,160106.000,1.000
192379.781,189569.266,205133.766,198244.609,192752.609,184205.734,192335.703,182280.984,0.000,1.002,0.168,-1.678,0.427,-0.519,80.000,160107.000,1.000
192393.453,189607.719,205171.672,198277.781,192779.688,184261.797,192383.984,182286.625,0.001,1.002,0.168,-1.678,0.519,-0.519,80.000,160108.000,1.000
192419.922,189635.422,205198.328,198302.719,192804.547,184292.469,192421.891,182313.531,-0.002,1.004,0.169,-1.648,0.458,-0.671,80.000,160109.000,1.000
192418.219,189617.281,205175.250,198284.125,192792.656,184258.578,192394.531,182321.750,-0.003,1.003,0.171,-1.740,0.397,-0.641,80.000,160110.000,1.000
192395.156,189582.047,205133.688,198246.750,192766.016,184215.484,192355.281,182304.688,-0.004,1.005,0.173,-1.862,0.397,-0.732,80.000,160111.000,1.000
192372.625,189574.359,205126.891,198234.406,192754.656,184215.484,192349.734,182278.313,-0.005,1.007,0.173,-1.892,0.336,-0.916,80.000,160112.000,1.000
192375.750,189587.953,205150.219,198252.922,192766.281,184250.000,192376.641,182277.953,-0.005,1.007,0.173,-1.923,0.305,-0.977,80.000,160113.000,1.000
192406.781,189617.188,205182.406,198286.891,192793.469,184280.219,192405.078,182309.859,-0.005,1.006,0.173,-1.953,0.305,-1.038,80.000,160114.000,1.000
192421.266,189618.984,205176.156,198287.781,192802.406,184276.547,192409.375,182345.188,-0.003,1.005,0.171,-2.075,0.122,-0.946,80.000,160115.000,1.000
192394.266,189581.969,205134.031,198254.969,192778.703,184235.063,192373.781,182336.328,-0.003,1.008,0.174,-2.167,0.092,-0.946,80.000,160116.000,1.000
192369.672,189576.156,205127.781,198245.672,192772.000,184243.203,192378.438,182310.406,-0.005,1.006,0.173,-2.106,0.000,-0.854,80.000,160117.000,1.000
192386.922,189608.688,205166.219,198282.328,192797.125,184281.016,192407.313,182321.125,-0.005,1.005,0.177,-2.106,-0.031,-0.763,80.000,160118.000,1.000
192422.688,189642.219,205201.359,198314.797,192825.375,184310.344,192439.406,182350.375,-0.005,1.005,0.173,-2.075,-0.153,-0.671,80.000,160119.000,1.000
192433.234,189631.219,205188.391,198300.656,192819.844,184287.281,192428.766,182365.031,-0.007,1.004,0.175,-2.045,-0.214,-0.732,80.000,160120.000,1.000
192409.016,189587.141,205144.859,198256.141,192783.172,184227.828,192372.438,182336.516,-0.006,1.002,0.174,-1.892,-0.305,-0.763,80.000,160121.000,1.000
192395.422,189575.703,205142.984,198248.000,192766.016,184211.109,192349.281,182296.813,-0.005,1.003,0.176,-2.045,-0.397,-0.610,80.000,160122.000,1.000
192412.938,189606.547,205180.266,198273.938,192790.422,184263.047,192396.313,182299.672,-0.005,1.003,0.174,-1.953,-0.366,-0.488,80.000,160123.000,1.000
192437.438,189633.016,205204.141,198296.906,192812.063,184292.641,192423.047,182319.438,-0.005,1.002,0.174,-1.892,-0.519,-0.458,80.000,160124.000,1.000
192452.828,189628.281,205194.922,198304.953,192812.766,184267.875,192405.078,182339.375,-0.005,1.001,0.173,-1.862,-0.610,-0.397,80.000,160125.000,1.000
192422.688,189584.109,205148.438,198267.938,192776.203,184206.188,192346.422,182312.547,-0.006,0.999,0.173,-1.801,-0.641,-0.244,80.000,160126.000,1.000
192398.016,189574.000,205142.797,198256.500,192763.516,184209.859,192345.359,182279.641,-0.006,0.997,0.175,-1.709,-0.641,-0.153,80.000,160127.000,1.000
192406.422,189603.156,205175.250,198281.438,192780.500,184239.359,192374.500,182281.969,-0.007,1.000,0.173,-1.526,-0.702,-0.214,80.000,160128.000,1.000
192433.156,189638.469,205205.656,198309.422,192803.563,184268.063,192398.734,182306.641,-0.005,1.001,0.172,-1.495,-0.824,-0.214,80.000,160129.000,1.000
192443.969,189636.328,205196.984,198307.906,192806.422,184267.516,192397.922,182330.875,-0.006,1.000,0.172,-1.373,-0.854,-0.214,80.000,160130.000,1.000
192413.750,189592.063,205152.453,198275.547,192780.313,184231.484,192371.547,182324.625,-0.007,1.000,0.174,-1.312,-0.977,-0.122,80.000,160131.000,1.000
192375.391,189566.406,205131.984,198252.203,192760.656,184223.172,192377.188,182298.328,-0.006,1.000,0.174,-1.251,-0.946,-0.214,80.000,160132.000,1.000
192375.750,189582.766,205150.047,198266.781,192768.063,184249.375,192384.250,182290.375,-0.005,1.001,0.173,-1.251,-1.007,-0.305,80.000,160133.000,1.000
192389.781,189603.422,205164.703,198278.125,192783.625,184277.531,192409.094,182313.078,-0.004,0.999,0.173,-1.190,-1.099,-0.336,80.000,160134.000,1.000
192391.219,189594.219,205147.094,198269.281,192780.938,184253.938,192392.828,182335.797,-0.003,0.998,0.175,-1.160,-1.038,-0.366,80.000,160135.000,1.000
192370.297,189562.828,205111.422,198243.172,192760.828,184211.641,192357.063,182328.188,-0.003,0.997,0.172,-1.068,-0.977,-0.366,80.000,160136.000,1.000
192347.766,189554.969,205106.766,198226.094,192752.063,184221.750,192361.891,182299.766,-0.002,0.999,0.170,-1.099,-1.068,-0.366,80.000,160137.000,1.000
192353.578,189576.688,205135.469,198241.922,192765.922,184255.547,192388.094,182297.172,-0.001,0.999,0.168,-0.977,-1.099,-0.366,80.000,160138.000,1.000
192386.031,189611.016,205170.344,198275.094,192794.531,184285.844,192417.234,182326.234,0.001,1.002,0.170,-0.946,-1.007,-0.458,80.000,160139.000,1.000
192403.734,189606.109,205165.234,198276.172,192797.844,184263.953,192404.625,182349.563,0.001,1.002,0.171,-0.885,-0.977,-0.458,80.000,160140.000,1.000
192379.781,189564.078,205124.109,198239.328,192764.672,184208.609,192351.344,182320.141,0.002,0.999,0.169,-0.793,-0.824,-0.458,80.000,160141.000,1.000
192365.469,189560.953,205124.656,198237.547,192755.906,184209.594,192346.422,182287.422,0.002,1.000,0.165,-0.732,-0.793,-0.305,80.000,160142.000,1.000
192390.234,189604.938,205173.734,198279.297,192788.906,184260.453,192394.703,182302.625,0.003,1.001,0.165,-0.763,-0.702,-0.244,80.000,160143.000,1.000
192406.594,189621.297,205194.563,198290.734,192802.406,184273.250,192414.641,182317.375,0.002,1.000,0.168,-0.610,-0.671,-0.305,80.000,160144.000,1.000
192422.953,189614.953,205186.703,198292.969,192805.703,184261.000,192406.422,182337.500,0.001,1.000,0.167,-0.610,-0.519,-0.397,80.000,160145.000,1.000
192403.469,189582.141,205147.531,198264.094,192781.125,184212.000,192369.500,182320.781,0.002,1.001,0.166,-0.641,-0.488,-0.397,80.000,160146.000,1.000
192382.453,189569.094,205140.922,198253.281,192769.859,184213.781,192363.500,182288.594,0.002,1.001,0.168,-0.610,-0.427,-0.397,80.000,160147.000,1.000
192383.703,189577.938,205162.109,198268.563,192775.672,184230.234,192374.953,182282.594,0.001,1.002,0.169,-0.671,-0.305,-0.397,80.000,160148.000,1.000
192401.953,189595.641,205182.141,198288.688,192790.781,184252.406,192396.500,182304.688,0.001,1.004,0.168,-0.610,-0.183,-0.397,80.000,160149.000,1.000
192413.391,189594.563,205172.844,198286.172,192790.516,184240.875,192395.063,182326.859,-0.002,1.003,0.166,-0.763,-0.061,-0.366,80.000,160150.000,1.000
192393.281,189566.859,205135.922,198255.063,192763.953,184201.984,192354.109,182309.688,-0.002,1.003,0.167,-0.854,-0.031,-0.366,80.000,160151.000,1.000
192363.234,189552.188,205120.984,198237.906,192743.656,184190.188,192340.172,182278.844,-0.001,1.006,0.170,-0.854,-0.031,-0.458,80.000,160152.000,1.000
192369.219,189577.484,205146.469,198262.578,192754.125,184205.109,192340.250,182273.922,-0.001,1.003,0.169,-0.793,-0.061,-0.458,80.000,160153.000,1.000
192397.125,189613.969,205179.016,198294.219,192789.531,184253.313,192388.453,182312.453,-0.001,1.004,0.166,-0.824,0.031,-0.549,80.000,160154.000,1.000
192404.813,189605.656,205166.047,198283.672,192794.719,184255.094,192393.906,182338.750,-0.002,1.004,0.166,-0.793,0.061,-0.458,80.000,160155.000,1.000
192384.250,189569.984,205127.250,198249.797,192771.109,184206.813,192350.094,182328.016,-0.002,1.003,0.166,-0.824,0.031,-0.458,80.000,160156.000,1.000
192360.828,189565.781,205120.094,198237.906,192760.656,184210.563,192345.625,182295.469,-0.002,1.003,0.167,-0.885,0.092,-0.427,80.000,160157.000,1.000
192369.219,189588.938,205151.203,198263.375,192782.375,184260.453,192389.703,182302.719,-0.003,1.002,0.165,-0.885,0.092,-0.458,80.000,160158.000,1.000
192385.766,189603.688,205171.953,198275.453,192800.875,184287.109,192421.172,182323.188,-0.002,1.004,0.167,-0.916,0.031,-0.519,80.000,160159.000,1.000
192396.141,189605.031,205167.656,198274.203,192807.594,184277.891,192419.375,182347.328,-0.003,1.004,0.169,-0.946,0.061,-0.580,80.000,160160.000,1.000
192381.922,189577.578,205136.094,198250.234,192784.156,184227.016,192373.688,182334.813,-0.003,1.005,0.166,-1.099,0.061,-0.610,80.000,160161.000,1.000
192365.922,189574.188,205133.859,198243.078,192773.078,184226.844,192365.734,182302.359,-0.002,1.003,0.168,-1.099,-0.061,-0.641,80.000,160162.000,1.000
192375.750,189594.125,205162.297,198264.625,192784.609,184257.594,192384.422,182297.625,-0.001,1.003,0.167,-1.190,-0.092,-0.488,80.000,160163.000,1.000
192405.969,189628.094,205193.578,198293.328,192811.156,184301.141,192422.156,182323.719,0.000,1.003,0.165,-1.160,-0.122,-0.488,80.000,160164.000,1.000
192436.094,189641.328,205201.984,198314.078,192831.453,184312.406,192435.391,182364.141,-0.003,1.002,0.166,-1.099,-0.061,-0.397,80.000,160165.000,1.000
192411.422,189595.828,205157.188,198271.250,192794.172,184244.813,192376.203,182332.844,-0.002,1.003,0.165,-1.007,-0.122,-0.427,80.000,160166.000,1.000
192379.859,189571.047,205137.344,198238.875,192765.828,184226.844,192360.281,182283.219,-0.003,1.002,0.161,-0.916,-0.153,-0.305,80.000,160167.000,1.000
192385.141,189584.469,205160.328,198255.328,192773.438,184243.563,192388.984,182282.156,-0.004,1.000,0.162,-1.007,-0.183,-0.336,80.000,160168.000,1.000
192405.875,189608.875,205182.859,198274.016,192789.078,184259.750,192399.891,182302.000,-0.003,0.999,0.163,-1.038,-0.214,-0.427,80.000,160169.000,1.000
192423.313,189612.359,205182.141,198281.703,192800.531,184260.281,192402.031,182330.344,-0.003,1.001,0.164,-1.129,-0.183,-0.336,80.000,160170.000,1.000
192402.844,189576.328,205147.094,198259.172,192779.688,184216.563,192364.844,182321.672,-0.004,1.001,0.162,-1.007,-0.214,-0.336,80.000,160171.000,1.000
192371.547,189557.375,205130.281,198238.531,192756.531,184196.984,192335.969,182277.234,-0.005,1.000,0.162,-1.099,-0.244,-0.366,80.000,160172.000,1.000
192380.125,189584.281,205159.875,198265.969,192775.047,184238.828,192366.625,182283.766,-0.005,1.001,0.160,-1.099,-0.244,-0.305,80.000,160173.000,1.000
192413.750,189625.688,205199.844,198311.578,192816.266,184292.203,192422.953,182333.375,-0.005,1.002,0.160,-1.007,-0.305,-0.549,80.000,160174.000,1.000
192424.203,189626.047,205193.219,198310.672,192824.125,184291.031,192431.188,182363.594,-0.007,1.003,0.162,-1.038,-0.366,-0.519,80.000,160175.000,1.000
192390.422,189577.672,205142.625,198266.328,192784.438,184226.578,192368.953,182333.109,-0.006,1.001,0.161,-0.977,-0.397,-0.519,80.000,160176.000,1.000
192367.797,189569.094,205135.469,198253.547,192768.063,184213.609,192349.734,182300.750,-0.005,1.003,0.162,-1.038,-0.397,-0.702,80.000,160177.000,1.000
192373.422,189594.125,205164.438,198272.766,192787.031,184262.344,192392.375,182305.484,-0.007,1.006,0.162,-1.038,-0.488,-0.671,80.000,160178.000,1.000
192403.203,189627.109,205195.906,198300.656,192814.031,184299.266,192430.203,182332.484,-0.007,1.005,0.161,-1.099,-0.641,-0.732,80.000,160179.000,1.000
192411.969,189613.250,205177.484,198287.438,192804.016,184264.750,192400.609,182345.625,-0.006,1.006,0.162,-1.068,-0.641,-0.763,80.000,160180.000,1.000
192379.500,189566.938,205125.016,198241.563,192766.906,184209.859,192351.609,182323.094,-0.003,1.006,0.163,-1.160,-0.641,-0.702,80.000,160181.000,1.000
192365.203,189562.297,205126.172,198244.344,192763.953,184225.594,192362.250,182303.609,-0.003,1.005,0.162,-1.282,-0.763,-0.824,80.000,160182.000,1.000
192399.719,189611.563,205183.563,198301.641,192808.125,184296.219,192426.531,182334.281,-0.004,1.008,0.163,-1.251,-0.732,-0.793,80.000,160183.000,1.000
192413.125,189630.328,205198.141,198300.938,192817.422,184307.484,192434.578,182341.063,-0.005,1.006,0.160,-1.282,-0.671,-0.793,80.000,160184.000,1.000
192418.672,189618.172,205180.625,198288.422,192809.203,184273.328,192408.031,182346.078,-0.004,1.005,0.161,-1.282,-0.732,-0.763,80.000,160185.000,1.000
192410.797,189596.266,205156.219,198276.172,192797.484,184235.063,192384.328,182343.656,-0.003,1.008,0.166,-1.282,-0.732,-0.732,80.000,160186.000,1.000
192378.797,189577.313,205141.109,198248.625,192775.672,184219.781,192367.438,182303.422,-0.004,1.005,0.165,-1.312,-0.793,-0.702,80.000,160187.000,1.000
192384.953,189600.563,205168.109,198264.813,192786.125,184245.703,192376.375,182296.281,-0.004,1.005,0.164,-1.373,-0.671,-0.610,80.000,160188.000,1.000
192412.594,189625.594,205195.641,198287.969,192807.406,184268.953,192403.203,182317.641,-0.004,1.006,0.165,-1.373,-0.702,-0.580,80.000,160189.000,1.000
192428.766,189617.813,205187.422,198288.688,192807.766,184253.578,192396.672,182333.297,-0.005,1.005,0.164,-1.434,-0.763,-0.549,80.000,160190.000,1.000
192415.266,189583.578,205155.406,198272.328,192789.078,184218.969,192366.625,182325.953,-0.005,1.004,0.163,-1.556,-0.641,-0.488,80.000,160191.000,1.000
192389.344,189565.250,205143.422,198254.000,192771.203,184213.250,192357.688,182292.703,-0.006,1.006,0.162,-1.587,-0.641,-0.488,80.000,160192.000,1.000
192389.516,189586.609,205167.391,198271.063,192783.891,184248.484,192385.313,182290.734,-0.006,1.005,0.162,-1.648,-0.610,-0.336,80.000,160193.000,1.000
192413.297,189626.125,205199.391,198302.625,192815.359,184293.625,192424.203,182325.516,-0.004,1.004,0.164,-1.678,-0.549,-0.305,80.000,160194.000,1.000
192418.313,189624.516,205188.750,198299.766,192820.547,184287.813,192423.500,182354.391,-0.004,1.003,0.163,-1.740,-0.549,-0.183,80.000,160195.000,1.000
192397.563,189586.078,205150.750,198273.656,192797.656,184239.531,192387.203,182343.219,-0.004,1.005,0.164,-1.709,-0.549,-0.214,80.000,160196.000,1.000
192372.891,189579.375,205141.188,198260.781,192782.734,184234.000,192376.906,182309.953,-0.005,1.004,0.165,-1.740,-0.641,-0.244,80.000,160197.000,1.000
192371.906,189598.594,205162.016,198271.781,192791.219,184267.078,192394.609,182300.484,-0.005,1.002,0.163,-1.892,-0.641,-0.183,80.000,160198.000,1.000
192401.672,189630.594,205195.641,198307.641,192822.875,184311.594,192434.141,182335.531,-0.003,1.001,0.167,-1.984,-0.519,-0.244,80.000,160199.000,1.000
192416.797,189626.313,205188.219,198309.328,192821.625,184287.641,192411.688,182357.250,-0.003,1.003,0.166,-2.014,-0.580,-0.244,80.000,160200.000,1.000
192393.984,189585.984,205145.219,198272.328,192795.703,184253.219,192384.875,182342.500,-0.003,1.003,0.166,-2.075,-0.641,-0.275,80.000,160201.000,1.000
192364.125,189560.422,205125.094,198247.281,192769.500,184225.766,192364.844,182304.234,-0.002,1.003,0.166,-2.075,-0.488,-0.214,80.000,160202.000,1.000
192372.797,189581.063,205151.297,198271.969,192778.984,184241.234,192382.453,182305.125,-0.002,1.001,0.165,-2.045,-0.458,-0.275,80.000,160203.000,1.000
192401.953,189618.172,205180.891,198295.125,192800.875,184276.641,192406.781,182322.203,-0.003,1.002,0.166,-2.106,-0.458,-0.275,80.000,160204.000,1.000
192411.156,189610.750,205162.016,198277.063,192792.125,184262.688,192396.141,182330.781,-0.002,1.004,0.165,-2.136,-0.519,-0.336,80.000,160205.000,1.000
192398.734,189579.188,205128.500,198252.734,192771.734,184227.641,192371.641,182325.688,-0.003,1.002,0.166,-2.106,-0.397,-0.397,80.000,160206.000,1.000
192386.031,189572.844,205128.047,198244.781,192760.469,184218.969,192357.781,182293.328,-0.004,1.004,0.163,-2.136,-0.397,-0.336,80.000,160207.000,1.000
192392.031,189589.656,205153.438,198260.969,192770.578,184246.594,192377.891,182287.969,-0.003,1.002,0.166,-2.014,-0.214,-0.244,80.000,160208.000,1.000
192428.594,189633.641,205194.203,198297.625,192808.484,184293.625,192425.734,182326.578,-0.003,1.001,0.162,-2.167,-0.153,-0.366,80.000,160209.000,1.000
192446.031,189633.453,205190.094,198297.266,192813.672,184273.328,192410.438,182349.656,-0.002,1.001,0.163,-1.953,-0.183,-0.336,80.000,160210.000,1.000
192430.563,189597.344,205154.250,198266.516,192792.484,184228.891,192377.359,182337.313,-0.002,1.000,0.164,-1.984,-0.183,-0.336,80.000,160211.000,1.000
192425.734,189599.672,205161.125,198275.000,192796.406,184238.734,192386.484,182323.281,-0.004,1.001,0.162,-2.075,-0.122,-0.427,80.000,160212.000,1.000
192439.141,189629.797,205190.906,198296.453,192811.969,184273.422,192411.156,182320.328,-0.003,1.001,0.162,-1.953,-0.214,-0.397,80.000,160213.000,1.000
192458.906,189645.891,205208.250,198305.844,192821.625,184287.813,192418.047,182324.531,-0.003,1.000,0.165,-1.892,-0.122,-0.427,80.000,160214.000,1.000
192479.375,189646.156,205205.469,198311.031,192827.438,184280.219,192413.578,182346.344,-0.003,1.002,0.166,-1.892,-0.153,-0.458,80.000,160215.000,1.000
192472.578,189619.156,205175.250,198292.703,192810.094,184248.828,192385.313,182337.844,-0.004,1.004,0.167,-1.923,-0.092,-0.336,80.000,160216.000,1.000
192449.781,189604.938,205161.672,198273.391,192789.266,184231.484,192365.469,182302.531,-0.003,1.002,0.167,-2.014,-0.092,-0.366,80.000,160217.000,1.000
192457.641,189631.141,205188.484,198296.906,192801.156,184267.516,192390.766,182298.953,-0.004,1.002,0.166,-2.014,-0.122,-0.366,80.000,160218.000,1.000
192486.891,189655.984,205216.656,198324.984,192822.156,184303.734,192422.953,182319.797,-0.005,1.002,0.168,-1.953,-0.092,-0.397,80.000,160219.000,1.000
192489.031,189635.609,205197.781,198310.141,192811.609,184273.688,192401.500,182334.984,-0.005,1.004,0.165,-1.953,-0.092,-0.397,80.000,160220.000,1.000
192457.297,189594.391,205150.313,198269.453,192782.828,184234.172,192365.656,182318.984,-0.006,1.001,0.164,-1.923,-0.153,-0.458,80.000,160221.000,1.000
192441.016,189588.313,205149.422,198266.328,192778.984,184238.906,192364.313,182304.234,-0.008,1.003,0.161,-1.892,-0.153,-0.336,80.000,160222.000,1.000
192445.047,189608.422,205173.109,198281.078,192790.156,184268.953,192396.406,182300.297,-0.008,1.002,0.164,-1.862,-0.153,-0.336,80.000,160223.000,1.000
192466.500,189632.297,205196.438,198303.609,192808.922,184293.094,192421.797,182319.250,-0.006,1.000,0.166,-1.862,-0.214,-0.275,80.000,160224.000,1.000
192480.984,189636.500,205192.328,198310.047,192815.016,184281.016,192412.938,182346.969,-0.005,1.000,0.167,-1.831,-0.244,-0.305,80.000,160225.000,1.000
192458.813,189609.406,205157.641,198279.031,192794.094,184237.750,192379.500,182341.422,-0.007,1.004,0.163,-1.862,-0.336,-0.366,80.000,160226.000,1.000
192433.859,189597.156,205147.813,198262.313,192777.813,184230.500,192368.063,182307.000,-0.006,1.003,0.163,-1.862,-0.397,-0.336,80.000,160227.000,1.000
192452.906,189626.672,205186.156,198300.844,192800.609,184282.906,192405.531,182310.141,-0.008,1.005,0.163,-1.923,-0.427,-0.305,80.000,160228.000,1.000
192487.234,189656.172,205218.797,198335.172,192822.969,184304.891,192427.344,182333.109,-0.007,1.003,0.166,-1.740,-0.458,-0.336,80.000,160229.000,1.000
192491.438,189643.922,205200.641,198314.969,192813.844,184272.797,192404.984,182347.063,-0.009,1.003,0.167,-1.709,-0.549,-0.275,80.000,160230.000,1.000
192473.828,189612.000,205162.734,198281.625,192791.313,184226.125,192366.094,182340.984,-0.007,1.005,0.167,-1.831,-0.519,-0.305,80.000,160231.000,1.000
192449.609,189596.266,205150.219,198263.016,192774.328,184218.609,192359.031,182312.281,-0.005,1.005,0.165,-1.831,-0.427,-0.275,80.000,160232.000,1.000
192459.078,189626.938,205182.859,198288.328,192797.750,184270.563,192402.313,182320.328,-0.006,1.003,0.165,-1.892,-0.580,-0.153,80.000,160233.000,1.000
192480.531,189658.672,205209.234,198315.141,192820.109,184299.344,192420.359,182336.063,-0.005,1.007,0.165,-1.923,-0.580,-0.092,80.000,160234.000,1.000
192491.172,189653.125,205196.797,198313.984,192816.797,184281.297,192397.828,182349.734,-0.004,1.006,0.168,-1.953,-0.580,-0.031,80.000,160235.000,1.000
192465.781,189613.250,205154.953,198277.063,192793.469,184246.781,192378.969,182342.047,-0.002,1.006,0.167,-1.984,-0.671,-0.092,80.000,160236.000,1.000
192433.156,189588.938,205137.703,198250.859,192768.063,184217.453,192348.750,182298.688,-0.003,1.002,0.167,-2.045,-0.488,-0.061,80.000,160237.000,1.000
192425.188,189599.484,205153.969,198259.531,192772.000,184247.766,192372.891,182284.203,-0.005,1.003,0.164,-2.136,-0.580,-0.092,80.000,160238.000,1.000
192444.781,189628.453,205180.797,198288.328,192798.828,184297.297,192416.703,182314.344,-0.002,1.004,0.168,-2.106,-0.641,0.031,80.000,160239.000,1.000
192453.000,189626.219,205170.969,198286.000,192799.625,184291.656,192411.063,182334.000,-0.001,1.004,0.167,-2.106,-0.702,0.031,80.000,160240.000,1.000
192430.109,189587.141,205129.563,198252.469,192768.875,184228.625,192367.703,182320.234,-0.003,1.003,0.167,-2.075,-0.519,0.031,80.000,160241.000,1.000
192402.484,189569.359,205113.203,198231.469,192746.078,184215.750,192350.094,182279.109,-0.004,1.003,0.164,-2.197,-0.580,0.061,80.000,160242.000,1.000
192410.172,189590.906,205143.688,198253.641,192759.578,184244.984,192369.938,182273.750,-0.004,1.002,0.165,-2.167,-0.580,0.000,80.000,160243.000,1.000
192438.969,189616.656,205178.297,198286.266,192784.609,184268.953,192397.922,182302.094,-0.003,1.001,0.167,-2.258,-0.519,0.000,80.000,160244.000,1.000
192454.250,189609.328,205171.047,198286.719,192784.156,184249.281,192386.031,182319.438,-0.003,1.000,0.166,-2.289,-0.519,0.061,80.000,160245.000,1.000
192437.266,189580.078,205137.250,198256.313,192764.406,184217.813,192358.578,182313.891,-0.004,1.002,0.166,-2.258,-0.488,0.031,80.000,160246.000,1.000
192419.375,189577.484,205136.188,198251.672,192756.891,184227.016,192357.422,182293.953,-0.002,1.001,0.164,-2.167,-0.397,-0.061,80.000,160247.000,1.000
192417.766,189590.719,205156.922,198267.672,192762.344,184255.000,192374.672,182286.797,0.000,1.001,0.168,-2.106,-0.366,0.031,80.000,160248.000,1.000
192437.266,189611.734,205180.438,198290.375,192778.797,184266.359,192393.547,182299.859,-0.001,1.002,0.168,-2.075,-0.336,0.031,80.000,160249.000,1.000
192464.438,189626.219,205189.109,198305.219,192797.750,184268.141,192401.500,182340.172,-0.003,1.004,0.171,-2.075,-0.336,0.000,80.000,160250.000,1.000
192432.344,189580.266,205140.031,198257.922,192767.172,184214.594,192359.125,182323.359,-0.002,1.003,0.172,-2.106,-0.336,0.000,80.000,160251.000,1.000
192404.188,189565.516,205126.703,198238.797,192747.141,184189.563,192325.500,182280.266,-0.001,1.001,0.170,-2.106,-0.427,0.031,80.000,160252.000,1.000
192411.063,189595.469,205159.344,198260.344,192768.250,184231.484,192355.016,182276.344,-0.001,1.002,0.169,-2.075,-0.336,-0.122,80.000,160253.000,1.000
192434.141,189619.875,205188.938,198290.031,192797.031,184268.141,192392.734,182308.531,-0.003,1.002,0.169,-2.167,-0.305,0.000,80.000,160254.000,1.000
192446.656,189624.438,205185.172,198291.984,192810.813,184271.453,192407.406,182342.047,-0.003,1.004,0.172,-2.136,-0.153,0.061,80.000,160255.000,1.000
192422.875,189593.500,205146.203,198262.391,192787.109,184227.109,192366.281,182332.938,-0.001,1.004,0.170,-2.197,-0.092,-0.031,80.000,160256.000,1.000
192403.563,189578.922,205135.922,198251.047,192767.266,184205.563,192337.938,182291.625,-0.001,1.003,0.170,-2.106,0.061,0.061,80.000,160257.000,1.000
192412.938,189602.969,205164.266,198268.125,192782.547,184250.000,192373.516,182283.219,0.000,1.002,0.167,-2.075,0.092,0.000,80.000,160258.000,1.000
192429.219,189617.375,205181.328,198281.266,192790.156,184259.297,192387.109,182295.563,0.001,1.002,0.171,-2.167,0.031,0.061,80.000,160259.000,1.000
192447.016,189622.016,205179.281,198289.484,192796.859,184255.547,192388.625,182321.672,0.000,1.000,0.167,-2.136,0.153,0.061,80.000,160260.000,1.000
192424.484,189586.703,205140.125,198259.172,192769.859,184212.453,192350.453,182307.625,0.002,1.000,0.165,-2.014,0.153,0.000,80.000,160261.000,1.000
192398.375,189567.391,205128.047,198243.797,192753.500,184212.266,192344.188,182279.922,0.003,0.999,0.167,-1.923,0.153,0.061,80.000,160262.000,1.000
192398.016,189583.922,205151.828,198261.953,192767.625,184257.234,192383.172,182279.016,0.000,1.000,0.168,-1.709,0.366,0.092,80.000,160263.000,1.000
192416.875,189610.578,205174.719,198280.094,192783.172,184276.734,192402.578,182290.547,-0.001,0.998,0.169,-1.709,0.397,0.061,80.000,160264.000,1.000
192428.234,189610.219,205166.141,198271.781,192785.953,184263.672,192397.203,182313.359,0.000,0.997,0.168,-1.617,0.427,-0.092,80.000,160265.000,1.000
192413.578,189584.734,205134.484,198247.734,192772.094,184232.109,192371.734,182310.500,-0.003,0.997,0.169,-1.495,0.458,-0.092,80.000,160266.000,1.000
192394.531,189573.641,205129.656,198242.547,192763.156,184232.109,192364.313,182288.406,-0.004,0.998,0.167,-1.434,0.397,-0.092,80.000,160267.000,1.000
192399.359,189591.438,205154.516,198260.703,192771.375,184251.078,192375.391,182281.078,-0.003,0.999,0.165,-1.404,0.336,-0.214,80.000,160268.000,1.000
192432.250,189632.563,205190.547,198299.406,192798.375,184282.813,192394.609,182298.953,-0.004,0.998,0.168,-1.312,0.366,-0.214,80.000,160269.000,1.000
192437.625,189623.266,205178.203,198293.422,192799.984,184268.953,192387.203,182325.063,-0.002,0.998,0.167,-1.282,0.336,-0.244,80.000,160270.000,1.000
192406.953,189574.813,205131.625,198252.656,192772.984,184212.359,192359.297,182321.672,-0.002,0.999,0.167,-1.221,0.214,-0.214,80.000,160271.000,1.000
192392.469,189567.484,205131.625,198252.922,192771.109,184210.219,192363.953,182310.578,-0.001,0.999,0.168,-1.190,0.305,-0.183,80.000,160272.000,1.000
192403.109,189594.750,205164.078,198281.266,192794.000,184259.031,192403.375,182324.172,-0.003,1.003,0.167,-1.160,0.305,-0.244,80.000,160273.000,1.000
192416.344,189617.094,205181.875,198291.906,192808.297,184288.266,192417.422,182335.891,-0.002,1.004,0.170,-1.129,0.275,-0.244,80.000,160274.000,1.000
192426.719,189615.672,205173.641,198288.063,192808.750,184268.781,192399.266,182352.875,-0.001,1.005,0.168,-1.160,0.183,-0.244,80.000,160275.000,1.000
192401.406,189580.703,205131.984,198254.625,192784.516,184228.719,192364.578,182343.656,-0.002,1.007,0.168,-1.160,0.275,-0.305,80.000,160276.000,1.000
192372.172,189567.203,205119.641,198236.641,192772.094,184233.016,192365.016,182309.781,-0.002,1.006,0.167,-1.221,0.275,-0.336,80.000,160277.000,1.000
192384.250,189593.938,205151.734,198261.594,192787.469,184264.031,192389.078,182304.141,-0.004,1.004,0.167,-1.343,0.092,-0.427,80.000,160278.000,1.000
192408.031,189617.547,205176.688,198282.422,192806.063,184294.703,192427.344,182327.297,-0.006,1.007,0.168,-1.312,0.153,-0.549,80.000,160279.000,1.000
192419.031,189616.391,205167.750,198278.484,192808.297,184286.031,192428.063,182348.219,-0.005,1.006,0.171,-1.251,0.122,-0.671,80.000,160280.000,1.000
192397.922,189576.688,205126.969,198249.703,192779.156,184231.938,192377.188,182332.391,-0.007,1.007,0.170,-1.312,-0.122,-0.732,80.000,160281.000,1.000
192367.266,189549.781,205108.016,198231.469,192753.672,184211.828,192358.313,182297.266,-0.008,1.006,0.172,-1.373,-0.183,-0.702,80.000,160282.000,1.000
192378.875,189575.531,205140.828,198260.703,192771.375,184251.875,192390.063,182295.563,-0.007,1.006,0.172,-1.343,-0.122,-0.732,80.000,160283.000,1.000
192406.422,189601.281,205172.844,198291.906,192796.766,184294.797,192424.484,182313.078,-0.007,1.007,0.170,-1.434,-0.305,-0.732,80.000,160284.000,1.000
192427.609,189611.281,205173.906,198297.625,192804.188,184282.906,192412.047,182338.656,-0.006,1.006,0.169,-1.404,-0.458,-0.824,80.000,160285.000,1.000
192415.813,189594.125,205146.203,198276.516,192794.891,184269.406,192387.375,182343.656,-0.005,1.006,0.170,-1.556,-0.488,-0.641,80.000,160286.000,1.000
192379.688,189565.250,205123.938,198247.016,192766.906,184238.375,192368.516,182306.563,-0.005,1.004,0.167,-1.495,-0.610,-0.641,80.000,160287.000,1.000
192376.375,189574.625,205142.266,198256.500,192769.500,184252.328,192391.313,182301.188,-0.006,1.002,0.167,-1.495,-0.641,-0.580,80.000,160288.000,1.000
192401.234,189610.391,205172.750,198284.922,192795.078,184287.813,192422.953,182322.203,-0.004,1.002,0.168,-1.617,-0.641,-0.488,80.000,160289.000,1.000
192417.953,189613.078,205168.813,198289.125,192804.016,184279.953,192411.422,182342.328,-0.004,1.003,0.167,-1.495,-0.732,-0.366,80.000,160290.000,1.000
192399.094,189583.125,205130.813,198261.234,192785.859,184249.109,192375.578,182336.781,-0.002,1.001,0.167,-1.526,-0.793,-0.366,80.000,160291.000,1.000
192362.516,189560.141,205107.578,198230.844,192762.438,184235.969,192357.156,182301.469,-0.004,1.000,0.166,-1.495,-0.854,-0.366,80.000,160292.000,1.000
192360.828,189576.781,205133.234,198249.438,192776.922,184272.531,192391.391,182302.984,-0.005,0.999,0.169,-1.495,-0.916,-0.244,80.000,160293.000,1.000
192377.719,189596.984,205155.859,198271.156,192796.766,184298.719,192431.453,182325.422,-0.003,1.001,0.168,-1.495,-0.916,-0.183,80.000,160294.000,1.000
192396.313,189605.750,205154.516,198274.203,192806.875,184297.203,192436.094,182353.500,-0.005,1.000,0.167,-1.373,-0.916,-0.244,80.000,160295.000,1.000
192383.703,189574.813,205122.141,198259.797,192785.141,184244.906,192383.531,182350.719,-0.003,0.999,0.168,-1.343,-0.946,-0.275,80.000,160296.000,1.000
192357.609,189554.328,205108.828,198242.641,192767.094,184237.125,192358.234,182317.641,-0.004,0.999,0.167,-1.312,-0.916,-0.275,80.000,160297.000,1.000
192355.359,189564.438,205127.594,198245.047,192771.109,184260.453,192382.719,182301.469,-0.005,1.000,0.166,-1.312,-0.977,-0.275,80.000,160298.000,1.000
192368.594,189585.891,205145.484,198251.750,192779.875,184272.344,192403.734,182310.672,-0.004,0.999,0.167,-1.343,-1.038,-0.244,80.000,160299.000,1.000
192387.203,189591.969,205146.469,198256.672,192787.469,184262.063,192403.922,182333.656,-0.004,0.999,0.166,-1.312,-1.038,-0.244,80.000,160300.000,1.000
192370.828,189561.047,205109.984,198232.531,192764.406,184224.156,192366.359,182319.078,-0.003,0.998,0.167,-1.190,-1.068,-0.214,80.000,160301.000,1.000
192356.266,189554.969,205107.484,198232.172,192757.078,184225.328,192361.266,182294.750,-0.006,1.000,0.168,-1.282,-1.099,-0.214,80.000,160302.000,1.000
192368.063,189578.828,205139.766,198257.391,192775.672,184261.797,192388.266,182297.172,-0.003,1.001,0.168,-1.312,-1.007,-0.366,80.000,160303.000,1.000
192388.813,189606.109,205166.313,198281.078,192801.328,184304.891,192429.938,182324.438,-0.002,1.002,0.168,-1.312,-1.038,-0.305,80.000,160304.000,1.000
192392.734,189600.109,205149.781,198266.156,192795.344,184290.047,192414.016,182330.703,-0.001,1.001,0.166,-1.404,-0.946,-0.305,80.000,160305.000,1.000
192365.828,189554.156,205103.734,198230.203,192765.484,184233.375,192370.922,182319.516,0.002,1.003,0.164,-1.526,-0.946,-0.183,80.000,160306.000,1.000
192344.188,189544.141,205096.125,198216.172,192752.609,184231.219,192363.594,182289.578,0.004,1.004,0.166,-1.465,-0.854,-0.214,80.000,160307.000,1.000
192344.375,189564.438,205117.859,198235.125,192757.078,184246.328,192369.672,182278.391,0.004,1.003,0.163,-1.373,-0.824,-0.214,80.000,160308.000,1.000
192377.719,189597.422,205154.063,198275.266,192789.703,184285.313,192412.672,182316.578,0.004,1.004,0.163,-1.343,-0.702,-0.275,80.000,160309.000,1.000
192394.797,189598.234,205151.391,198278.484,192801.156,184294.703,192429.125,182348.313,0.004,1.003,0.166,-1.343,-0.549,-0.183,80.000,160310.000,1.000
192367.172,189552.906,205102.391,198235.031,192770.031,184246.594,192386.844,182331.234,0.005,1.003,0.167,-1.343,-0.519,-0.183,80.000,160311.000,1.000
192336.406,189528.938,205081.109,198208.844,192743.219,184222.641,192358.938,182293.688,0.005,1.001,0.165,-1.465,-0.305,-0.275,80.000,160312.000,1.000
192334.000,189542.094,205099.969,198220.906,192748.750,184255.094,192381.297,182283.578,0.003,1.002,0.165,-1.404,-0.244,-0.244,80.000,160313.000,1.000
192359.484,189568.188,205129.203,198253.547,192770.656,184279.953,192407.766,182311.031,0.003,1.002,0.162,-1.404,-0.122,-0.183,80.000,160314.000,1.000
192382.906,189581.875,205134.313,198263.922,192784.078,184279.234,192414.828,182342.953,0.002,1.002,0.163,-1.404,-0.092,-0.244,80.000,160315.000,1.000
192360.375,189544.859,205090.406,198225.469,192751.703,184221.828,192361.625,182323.453,0.002,1.002,0.165,-1.495,0.031,-0.214,80.000,160316.000,1.000
192342.219,189536.547,205083.797,198216.531,192738.922,184216.203,192356.797,182295.734,0.002,1.002,0.167,-1.434,0.122,-0.122,80.000,160317.000,1.000
192358.141,189572.391,205123.406,198249.172,192758.594,184250.266,192381.297,182300.656,0.001,1.003,0.165,-1.434,0.061,-0.122,80.000,160318.000,1.000
192374.500,189589.031,205145.297,198263.375,192768.063,184253.938,192388.625,182312.813,0.000,1.003,0.163,-1.434,0.122,-0.183,80.000,160319.000,1.000
192385.594,189578.750,205136.188,198254.703,192767.531,184244.641,192387.109,182326.578,0.001,1.003,0.163,-1.526,0.244,-0.397,80.000,160320.000,1.000
192364.391,189532.875,205093.000,198217.875,192736.953,184193.500,192345.078,182307.813,0.000,1.003,0.163,-1.465,0.275,-0.305,80.000,160321.000,1.000
192350.531,189530.375,205092.828,198217.609,192734.719,184202.875,192346.688,182283.047,0.001,1.003,0.162,-1.526,0.275,-0.305,80.000,160322.000,1.000
192351.609,189551.109,205115.172,198227.625,192740.891,184228.625,192351.172,182263.641,0.002,1.002,0.167,-1.526,0.305,-0.397,80.000,160323.000,1.000
192383.438,189588.750,205153.266,198260.703,192774.063,184268.953,192390.766,182299.406,0.000,1.002,0.163,-1.556,0.305,-0.427,80.000,160324.000,1.000
192399.172,189593.938,205153.000,198261.688,192786.484,184269.406,192406.156,182324.891,-0.002,1.005,0.167,-1.587,0.366,-0.397,80.000,160325.000,1.000
192380.047,189561.047,205114.281,198230.484,192762.172,184216.828,192360.375,182313.719,-0.003,1.005,0.171,-1.556,0.366,-0.397,80.000,160326.000,1.000
192349.203,189537.609,205093.094,198205.984,192736.422,184197.516,192326.750,182269.359,-0.004,1.004,0.168,-1.587,0.366,-0.549,80.000,160327.000,1.000
192367.078,189572.750,205133.500,198243.984,192764.844,184255.547,192376.016,182276.156,-0.002,1.006,0.165,-1.648,0.305,-0.519,80.000,160328.000,1.000
192407.047,189616.391,205180.266,198293.063,192806.516,184299.531,192422.422,182324.172,-0.004,1.005,0.165,-1.740,0.214,-0.458,80.000,160329.000,1.000
192419.656,189616.656,205176.781,198294.938,192815.016,184294.703,192421.531,182352.063,-0.004,1.005,0.168,-1.740,0.061,-0.549,80.000,160330.000,1.000
192390.500,189570.422,205126.703,198253.016,192780.047,184229.438,192373.875,182334.359,-0.003,1.001,0.165,-1.801,0.061,-0.488,80.000,160331.000,1.000
192353.844,189541.109,205101.500,198222.703,192750.813,184202.344,192345.172,182290.281,-0.002,1.000,0.162,-1.801,0.092,-0.488,80.000,160332.000,1.000
192360.828,189565.688,205128.766,198242.016,192764.406,184242.578,192375.031,182283.672,-0.002,0.999,0.160,-1.770,-0.061,-0.549,80.000,160333.000,1.000
192389.156,189596.984,205158.000,198274.906,192786.938,184286.031,192414.203,182308.172,-0.004,0.999,0.162,-1.617,-0.061,-0.641,80.000,160334.000,1.000
192396.047,189591.891,205144.594,198265.609,192779.609,184262.422,192393.281,182324.000,-0.004,1.000,0.164,-1.495,-0.092,-0.458,80.000,160335.000,1.000
192365.016,189545.578,205095.422,198220.016,192743.391,184198.953,192341.859,182306.297,-0.003,0.999,0.162,-1.465,-0.153,-0.427,80.000,160336.000,1.000
192344.188,189538.156,205086.469,198207.766,192730.344,184196.172,192337.484,182282.156,-0.005,1.001,0.163,-1.404,-0.183,-0.397,80.000,160337.000,1.000
192345.703,189555.406,205109.094,198226.719,192740.531,184230.063,192362.078,182278.750,-0.003,1.002,0.164,-1.404,-0.275,-0.458,80.000,160338.000,1.000
192365.656,189577.313,205135.641,198249.609,192758.141,184249.188,192379.953,182295.109,-0.002,1.002,0.163,-1.343,-0.244,-0.458,80.000,160339.000,1.000
192386.125,189588.938,205139.500,198259.000,192771.828,184257.156,192389.609,182324.891,-0.003,1.000,0.160,-1.160,-0.275,-0.427,80.000,160340.000,1.000
192371.641,189550.484,205100.328,198227.172,192746.438,184211.734,192351.797,182308.250,-0.004,1.001,0.161,-1.129,-0.336,-0.397,80.000,160341.000,1.000
192344.016,189525.094,205080.938,198204.016,192723.906,184194.391,192336.500,182270.078,-0.003,0.999,0.161,-1.007,-0.305,-0.336,80.000,160342.000,1.000
192359.750,189558.266,205120.094,198239.234,192750.359,184243.563,192374.594,182280.984,-0.004,1.000,0.165,-1.038,-0.488,-0.519,80.000,160343.000,1.000
192384.516,189586.078,205150.672,198264.813,192774.234,184278.078,192402.844,182302.891,-0.006,1.003,0.164,-1.038,-0.488,-0.580,80.000,160344.000,1.000
192391.313,189578.469,205135.109,198243.984,192763.328,184252.688,192378.172,182293.859,-0.004,1.000,0.164,-1.007,-0.549,-0.549,80.000,160345.000,1.000
192372.797,189544.672,205095.328,198213.313,192736.688,184200.906,192337.484,182278.391,-0.004,1.002,0.163,-1.099,-0.763,-0.549,80.000,160346.000,1.000
192349.828,189529.484,205081.641,198201.953,192717.281,184180.438,192315.219,182242.188,-0.004,1.002,0.161,-1.190,-0.824,-0.610,80.000,160347.000,1.000
192358.766,189553.703,205112.938,198227.625,192732.031,184215.750,192341.156,182239.688,-0.005,1.004,0.162,-1.190,-0.824,-0.702,80.000,160348.000,1.000
192388.172,189588.578,205150.219,198267.578,192766.016,184265.469,192392.297,182282.422,-0.004,1.004,0.163,-1.251,-0.732,-0.793,80.000,160349.000,1.000
192409.188,189601.281,205153.000,198279.031,192781.031,184278.344,192394.266,182318.813,-0.003,1.002,0.161,-1.221,-0.824,-0.763,80.000,160350.000,1.000
192381.297,189560.063,205103.906,198235.031,192747.594,184214.234,192343.922,182300.844,-0.006,1.003,0.162,-1.190,-0.885,-0.854,80.000,160351.000,1.000
192354.469,189539.938,205090.938,198220.641,192734.359,184193.672,192336.141,182279.109,-0.004,1.003,0.162,-1.282,-0.916,-0.793,80.000,160352.000,1.000
192351.438,189553.531,205112.406,198236.109,192747.234,184229.172,192361.453,182279.563,-0.003,1.004,0.163,-1.251,-0.916,-0.793,80.000,160353.000,1.000
192373.781,189583.484,205141.281,198259.453,192770.219,184260.547,192390.594,182303.875,-0.002,1.005,0.163,-1.282,-0.916,-0.793,80.000,160354.000,1.000
192393.188,189589.391,205143.969,198262.672,192783.891,184272.438,192409.453,182335.969,0.000,1.003,0.159,-1.312,-0.854,-0.671,80.000,160355.000,1.000
192371.906,189548.875,205100.422,198227.891,192750.188,184206.375,192342.578,182319.250,-0.002,1.002,0.161,-1.343,-0.793,-0.610,80.000,160356.000,1.000
192342.500,189525.813,205081.828,198207.594,192725.516,184183.484,192317.016,182283.313,-0.001,1.002,0.164,-1.343,-0.793,-0.610,80.000,160357.000,1.000
192343.469,189551.297,205108.734,198227.703,192741.422,184221.563,192359.484,182287.688,0.000,1.003,0.160,-1.434,-0.854,-0.641,80.000,160358.000,1.000
192364.750,189582.313,205136.906,198251.750,192766.641,184263.141,192404.000,182312.281,0.000,1.003,0.160,-1.404,-0.885,-0.580,80.000,160359.000,1.000
192380.219,189582.672,205131.172,198248.719,192769.141,184253.125,192398.281,182328.641,-0.002,1.002,0.162,-1.526,-0.793,-0.549,80.000,160360.000,1.000
192358.578,189545.313,205088.266,198213.313,192741.609,184209.406,192359.656,182316.750,-0.003,1.005,0.163,-1.556,-0.793,-0.488,80.000,160361.000,1.000
192337.313,189534.219,205078.516,198204.188,192730.250,184215.750,192354.656,182290.469,-0.004,1.003,0.161,-1.556,-0.854,-0.458,80.000,160362.000,1.000
192335.969,189543.422,205096.313,198212.688,192731.406,184237.922,192359.391,182268.031,-0.002,1.005,0.161,-1.556,-0.854,-0.549,80.000,160363.000,1.000
192357.781,189563.453,205121.797,198233.078,192747.859,184263.672,192389.078,182280.547,-0.005,1.005,0.161,-1.617,-0.763,-0.549,80.000,160364.000,1.000
192380.672,189571.328,205122.500,198239.422,192753.406,184249.109,192383.984,182300.391,-0.005,1.004,0.162,-1.678,-0.702,-0.519,80.000,160365.000,1.000
192362.078,189534.391,205083.172,198211.703,192729.531,184199.656,192346.344,182291.813,-0.004,1.006,0.159,-1.678,-0.702,-0.458,80.000,160366.000,1.000
192339.547,189520.984,205073.328,198200.891,192716.844,184194.828,192334.359,182261.313,-0.003,1.005,0.159,-1.770,-0.702,-0.488,80.000,160367.000,1.000
192341.328,189538.156,205098.547,198220.734,192728.547,184226.938,192354.922,182256.047,-0.004,1.004,0.164,-1.831,-0.671,-0.427,80.000,160368.000,1.000
192368.422,189575.078,205133.500,198252.656,192758.406,184269.047,192399.000,182288.234,-0.004,1.004,0.161,-1.892,-0.671,-0.427,80.000,160369.000,1.000
192389.344,189586.078,205136.625,198259.984,192772.891,184277.359,192408.750,182324.625,-0.003,1.005,0.161,-2.014,-0.641,-0.397,80.000,160370.000,1.000
192375.031,189549.859,205101.047,198236.641,192746.969,184218.891,192346.250,182316.844,-0.004,1.006,0.162,-2.136,-0.519,-0.519,80.000,160371.000,1.000
192345.984,189530.203,205080.938,198208.313,192722.109,184193.406,192320.313,182276.156,-0.001,1.006,0.163,-2.258,-0.549,-0.397,80.000,160372.000,1.000
192346.688,189547.719,205103.281,198216.266,192730.969,184227.203,192347.313,182263.547,-0.002,1.005,0.160,-2.258,-0.580,-0.397,80.000,160373.000,1.000
192371.906,189576.328,205135.922,198249.516,192756.453,184263.406,192381.391,182283.047,-0.001,1.004,0.162,-2.380,-0.366,-0.366,80.000,160374.000,1.000
192392.563,189583.844,205140.203,198264.281,192770.484,184254.469,192385.594,182316.844,-0.003,1.000,0.161,-2.350,-0.366,-0.458,80.000,160375.000,1.000
192368.422,189548.609,205094.969,198219.297,192741.969,184200.563,192340.969,182300.656,-0.005,1.002,0.161,-2.502,-0.305,-0.458,80.000,160376.000,1.000
192344.281,189534.219,205080.844,198199.547,192728.906,184200.641,192331.859,182272.766,-0.006,1.003,0.157,-2.472,-0.305,-0.366,80.000,160377.000,1.000
192350.453,189552.281,205109.813,198225.203,192744.109,184235.688,192362.516,182276.969,-0.003,1.002,0.163,-2.502,-0.305,-0.458,80.000,160378.000,1.000
192375.391,189582.859,205141.813,198254.438,192769.859,184269.313,192397.391,182306.109,-0.004,1.002,0.163,-2.502,-0.427,-0.549,80.000,160379.000,1.000
192392.297,189595.906,205142.438,198256.313,192779.250,184269.047,192399.797,182330.438,-0.004,1.001,0.165,-2.533,-0.336,-0.488,80.000,160380.000,1.000
192365.016,189553.438,205095.859,198216.531,192750.281,184222.281,192358.047,182319.172,-0.003,1.002,0.162,-2.747,-0.305,-0.488,80.000,160381.000,1.000
192338.922,189531.984,205081.281,198196.594,192732.484,184210.656,192341.516,182286.438,-0.004,1.004,0.160,-2.777,-0.275,-0.549,80.000,160382.000,1.000
192342.500,189545.750,205107.656,198218.766,192744.734,184233.906,192370.656,182285.094,-0.003,1.005,0.162,-2.747,-0.305,-0.488,80.000,160383.000,1.000
192362.609,189569.172,205135.641,198247.016,192768.609,184271.359,192415.625,182308.969,-0.004,1.006,0.160,-2.808,-0.305,-0.519,80.000,160384.000,1.000
192390.063,189587.328,205145.656,198266.594,192792.922,184300.250,192451.125,182350.375,-0.004,1.006,0.160,-2.869,-0.305,-0.488,80.000,160385.000,1.000
192380.047,189553.359,205110.531,198244.969,192764.500,184228.984,192374.406,182338.750,-0.006,1.008,0.159,-2.991,-0.305,-0.488,80.000,160386.000,1.000
192343.750,189519.563,205081.641,198207.500,192722.656,184162.563,192299.938,182282.422,-0.002,1.005,0.165,-3.052,-0.244,-0.427,80.000,160387.000,1.000
192342.844,189542.891,205106.594,198218.234,192735.172,184208.422,192333.281,182272.766,-0.001,1.005,0.166,-3.174,-0.397,-0.397,80.000,160388.000,1.000
192365.016,189570.344,205135.297,198242.453,192757.344,184242.484,192371.109,182292.156,-0.003,1.004,0.166,-3.235,-0.275,-0.458,80.000,160389.000,1.000
192380.047,189570.250,205130.813,198246.031,192762.172,184226.484,192373.969,182319.344,-0.003,1.003,0.163,-3.204,-0.305,-0.427,80.000,160390.000,1.000
192368.156,189544.047,205098.281,198222.344,192745.625,184193.313,192345.984,182317.281,-0.004,1.003,0.163,-3.235,-0.214,-0.458,80.000,160391.000,1.000
192347.594,189529.922,205087.375,198208.844,192731.594,184186.250,192336.766,182290.016,-0.006,1.000,0.163,-3.235,-0.305,-0.397,80.000,160392.000,1.000
192352.234,189549.953,205114.016,198229.234,192743.031,184224.344,192364.313,182284.203,-0.008,0.999,0.163,-3.204,-0.397,-0.397,80.000,160393.000,1.000
192379.953,189585.813,205150.047,198261.141,192772.000,184276.188,192408.031,182312.109,-0.007,1.001,0.167,-3.113,-0.336,-0.427,80.000,160394.000,1.000
192401.141,189595.906,205152.641,198265.609,192788.094,184295.156,192428.953,182343.219,-0.007,1.001,0.165,-3.143,-0.366,-0.336,80.000,160395.000,1.000
192379.063,189554.688,205105.516,198224.938,192753.500,184220.938,192361.359,182328.641,-0.007,1.004,0.167,-3.204,-0.427,-0.427,80.000,160396.000,1.000
192353.844,189539.313,205090.766,198206.703,192733.922,184201.719,192334.172,182293.594,-0.008,1.005,0.165,-3.204,-0.458,-0.305,80.000,160397.000,1.000
192358.766,189560.141,205118.031,198228.594,192746.797,184232.750,192359.844,182280.000,-0.007,1.007,0.168,-3.265,-0.519,-0.275,80.000,160398.000,1.000
192375.578,189578.391,205138.594,198245.047,192759.313,184245.266,192375.297,182289.750,-0.006,1.005,0.170,-3.326,-0.580,-0.366,80.000,160399.000,1.000
192395.063,189583.844,205140.922,198251.844,192770.484,184247.219,192382.281,182319.797,-0.007,1.004,0.167,-3.448,-0.519,-0.305,80.000,160400.000,1.000
192390.688,189561.672,205116.516,198238.172,192758.688,184217.359,192358.047,182322.656,-0.005,1.004,0.166,-3.540,-0.580,-0.275,80.000,160401.000,1.000
192373.156,189558.000,205111.156,198232.797,192751.703,184227.281,192357.156,182305.031,-0.006,1.003,0.168,-3.601,-0.702,-0.336,80.000,160402.000,1.000
192369.578,189571.953,205132.781,198241.922,192762.969,184262.516,192390.063,182296.453,-0.007,1.002,0.169,-3.662,-0.580,-0.305,80.000,160403.000,1.000
192386.750,189590.641,205156.656,198259.984,192778.000,184276.188,192408.031,182311.391,-0.005,1.003,0.168,-3.632,-0.580,-0.244,80.000,160404.000,1.000
192406.328,189599.313,205160.141,198267.406,192788.453,184273.422,192408.656,182340.359,-0.005,1.002,0.167,-3.601,-0.732,-0.275,80.000,160405.000,1.000
192388.813,189568.188,205122.500,198237.000,192763.953,184224.969,192363.859,182335.797,-0.003,0.999,0.168,-3.571,-0.641,-0.214,80.000,160406.000,1.000
192360.828,189547.188,205103.547,198214.031,192740.359,184211.281,192344.375,182300.203,-0.005,0.999,0.169,-3.601,-0.610,-0.336,80.000,160407.000,1.000
192364.844,189565.516,205126.266,198229.500,192751.172,184255.000,192370.656,182288.047,-0.002,0.999,0.170,-3.540,-0.671,-0.275,80.000,160408.000,1.000
192391.219,189593.406,205159.156,198259.797,192774.063,184267.703,192397.750,182306.469,-0.004,1.000,0.174,-3.540,-0.671,-0.214,80.000,160409.000,1.000
192401.672,189586.875,205150.672,198256.500,192768.688,184236.859,192375.750,182317.109,-0.003,1.000,0.170,-3.479,-0.671,-0.244,80.000,160410.000,1.000
192383.344,189556.125,205110.797,198225.031,192743.031,184195.906,192336.859,182305.391,-0.002,1.001,0.171,-3.510,-0.641,-0.244,80.000,160411.000,1.000
192359.391,189542.266,205097.203,198210.188,192729.453,184191.969,192327.922,182278.750,-0.002,1.001,0.171,-3.387,-0.488,-0.214,80.000,160412.000,1.000
192372.984,189565.875,205131.891,198244.609,192753.141,184238.641,192365.203,182284.203,-0.003,1.002,0.175,-3.387,-0.519,-0.153,80.000,160413.000,1.000
192397.031,189597.250,205160.500,198266.594,192775.844,184273.516,192397.125,182304.063,-0.003,1.000,0.175,-3.265,-0.458,-0.122,80.000,160414.000,1.000
192422.781,189608.344,205164.703,198272.953,192787.922,184274.406,192402.656,182333.375,-0.001,1.000,0.171,-3.082,-0.458,-0.061,80.000,160415.000,1.000
192407.219,189570.422,205122.422,198238.250,192760.469,184226.578,192359.125,182323.016,0.000,1.002,0.173,-2.960,-0.336,-0.031,80.000,160416.000,1.000
192383.625,189546.281,205100.875,198214.203,192734.547,184200.281,192332.125,182280.813,-0.002,1.001,0.172,-2.991,-0.305,-0.031,80.000,160417.000,1.000
192405.531,189582.500,205141.109,198250.781,192760.469,184252.047,192371.375,182285.281,-0.002,1.004,0.170,-2.899,-0.336,0.031,80.000,160418.000,1.000
192431.719,189610.391,205170.063,198274.828,192779.516,184274.766,192395.875,182305.672,-0.004,1.001,0.173,-2.777,-0.275,0.031,80.000,160419.000,1.000
192450.047,189618.266,205168.813,198269.813,192783.172,184266.359,192385.141,182324.891,-0.001,1.001,0.174,-2.808,-0.244,-0.031,80.000,160420.000,1.000
192442.266,189588.047,205137.438,198247.906,192765.828,184230.500,192355.813,182326.047,-0.001,1.002,0.173,-2.808,-0.153,-0.031,80.000,160421.000,1.000
192430.375,189578.656,205133.234,198247.109,192757.781,184228.094,192348.484,182301.469,-0.001,1.001,0.174,-2.716,-0.275,0.061,80.000,160422.000,1.000
192435.031,189596.719,205158.891,198267.406,192769.766,184259.125,192376.109,182294.406,-0.003,1.001,0.173,-2.655,-0.183,0.214,80.000,160423.000,1.000
192464.891,189630.516,205186.438,198285.375,192787.375,184280.484,192394.531,182305.391,-0.001,1.004,0.175,-2.533,-0.122,0.031,80.000,160424.000,1.000
192482.063,189633.641,205181.516,198279.469,192789.172,184271.641,192389.438,182323.281,0.000,1.003,0.172,-2.563,-0.092,0.000,80.000,160425.000,1.000
192463.641,189591.172,205140.563,198250.781,192766.453,184226.938,192363.953,182323.453,-0.001,1.001,0.175,-2.380,-0.061,0.000,80.000,160426.000,1.000
192436.281,189566.500,205118.484,198228.594,192744.563,184213.781,192350.984,182289.578,0.001,1.000,0.174,-2.350,-0.183,-0.061,80.000,160427.000,1.000
192439.594,189582.953,205140.828,198246.922,192750.453,184234.266,192354.297,182274.469,0.001,0.997,0.171,-2.380,-0.031,0.061,80.000,160428.000,1.000
192459.891,189608.422,205168.016,198274.016,192772.094,184259.563,192379.953,182300.203,0.002,0.995,0.171,-2.289,0.061,0.183,80.000,160429.000,1.000
192479.016,189618.172,205170.250,198285.016,192784.781,184263.672,192395.250,182334.000,0.002,0.995,0.171,-2.167,0.122,0.122,80.000,160430.000,1.000
192460.234,189580.266,205125.281,198250.859,192752.688,184207.703,192341.781,182309.781,0.002,0.995,0.170,-1.953,0.244,0.000,80.000,160431.000,1.000
192442.625,189567.391,205116.875,198236.828,192739.188,184198.406,192323.719,182277.859,-0.001,0.997,0.169,-1.740,0.366,0.061,80.000,160432.000,1.000
192446.109,189587.781,205145.750,198258.188,192755.906,184239.531,192352.234,182279.375,-0.002,0.997,0.171,-1.617,0.397,0.061,80.000,160433.000,1.000
192464.719,189615.313,205169.625,198275.000,192775.844,184274.938,192391.750,182298.250,-0.003,0.997,0.172,-1.587,0.366,-0.061,80.000,160434.000,1.000
192486.609,189625.328,205172.844,198282.156,192787.375,184272.891,192399.625,182323.813,-0.003,0.999,0.170,-1.434,0.366,-0.153,80.000,160435.000,1.000
192467.219,189592.875,205134.313,198251.313,192765.297,184231.219,192355.453,182319.172,-0.005,0.999,0.171,-1.221,0.336,-0.275,80.000,160436.000,1.000
192430.203,189561.047,205106.688,198224.047,192736.328,184201.625,192325.234,182282.422,-0.004,0.997,0.170,-1.190,0.397,-0.305,80.000,160437.000,1.000
192435.203,189581.250,205134.031,198247.828,192750.547,184233.906,192359.844,182277.953,-0.003,1.001,0.171,-1.038,0.336,-0.336,80.000,160438.000,1.000
192454.875,189609.406,205166.406,198275.547,192774.688,184273.422,192387.906,182297.266,-0.004,1.002,0.169,-0.946,0.275,-0.214,80.000,160439.000,1.000
192470.250,189613.797,205167.484,198280.906,192783.625,184270.297,192390.063,182325.063,-0.001,1.002,0.170,-1.007,0.305,-0.275,80.000,160440.000,1.000
192452.281,189580.625,205128.141,198252.203,192761.625,184230.156,192360.547,182322.828,-0.002,1.004,0.170,-0.916,0.244,-0.244,80.000,160441.000,1.000
192415.891,189548.875,205100.422,198221.359,192728.469,184191.250,192315.313,182274.281,-0.003,1.003,0.171,-0.946,0.214,-0.214,80.000,160442.000,1.000
192418.313,189571.328,205128.141,198240.406,192744.016,184229.703,192350.891,182272.500,-0.003,1.004,0.169,-0.946,0.183,-0.244,80.000,160443.000,1.000
192444.063,189607.984,205165.875,198275.453,192776.734,184277.531,192398.109,182301.188,-0.005,1.006,0.173,-0.916,0.244,-0.366,80.000,160444.000,1.000
192464.984,189622.281,205173.641,198288.859,192792.563,184279.766,192399.000,182333.375,-0.004,1.007,0.172,-0.946,0.275,-0.275,80.000,160445.000,1.000
192440.219,189579.547,205125.453,198243.359,192761.719,184229.969,192355.719,182319.250,-0.004,1.010,0.171,-1.160,0.122,-0.305,80.000,160446.000,1.000
192411.250,189561.750,205106.406,198220.734,192742.594,184231.141,192348.391,182285.375,-0.005,1.010,0.170,-1.343,0.092,-0.366,80.000,160447.000,1.000
192415.891,189581.422,205132.516,198244.516,192751.438,184251.609,192369.844,182277.234,-0.007,1.010,0.171,-1.404,0.061,-0.458,80.000,160448.000,1.000
192434.484,189602.969,205158.453,198272.594,192767.719,184259.203,192390.500,182301.641,-0.008,1.009,0.170,-1.404,-0.031,-0.519,80.000,160449.000,1.000
192440.125,189594.297,205147.094,198267.766,192763.875,184241.953,192377.891,182316.297,-0.007,1.008,0.172,-1.495,-0.061,-0.641,80.000,160450.000,1.000
192416.156,189557.469,205104.172,198231.641,192737.578,184204.406,192343.203,182302.531,-0.007,1.005,0.173,-1.556,-0.183,-0.702,80.000,160451.000,1.000
192390.422,189546.563,205091.219,198216.438,192725.781,184206.813,192342.672,182278.031,-0.008,1.004,0.171,-1.617,-0.275,-0.610,80.000,160452.000,1.000
192391.219,189561.844,205115.172,198236.109,192739.641,184243.469,192371.906,182281.250,-0.006,1.004,0.169,-1.740,-0.397,-0.549,80.000,160453.000,1.000
192408.563,189582.766,205139.672,198259.094,192755.469,184250.625,192378.703,182298.328,-0.005,1.004,0.168,-1.801,-0.610,-0.671,80.000,160454.000,1.000
192422.875,189589.469,205139.938,198259.797,192764.844,184250.266,192377.813,182316.391,-0.005,1.004,0.171,-1.801,-0.641,-0.549,80.000,160455.000,1.000
192410.000,189561.938,205109.984,198235.484,192753.047,184218.969,192356.078,182318.984,-0.002,1.002,0.172,-1.770,-0.824,-0.488,80.000,160456.000,1.000
192380.219,189538.422,205094.344,198216.984,192736.859,184205.031,192342.141,182285.547,-0.003,1.003,0.171,-1.801,-0.732,-0.397,80.000,160457.000,1.000
192376.828,189557.469,205122.063,198237.547,192752.688,184241.234,192376.203,182279.297,-0.002,1.000,0.172,-1.740,-0.793,-0.336,80.000,160458.000,1.000
192402.031,189596.984,205159.703,198272.234,192786.844,184288.531,192420.719,182310.844,-0.001,1.001,0.172,-1.709,-0.793,-0.275,80.000,160459.000,1.000
192413.297,189595.906,205152.453,198270.531,192788.094,184274.672,192402.750,182326.141,-0.003,1.003,0.173,-1.740,-0.732,-0.061,80.000,160460.000,1.000
192391.391,189555.141,205104.625,198233.250,192754.297,184207.703,192343.125,182311.656,-0.003,1.001,0.172,-1.709,-0.824,0.000,80.000,160461.000,1.000
192375.656,189551.563,205098.984,198220.906,192746.609,184206.813,192337.938,182287.250,-0.003,1.000,0.170,-1.770,-0.824,0.061,80.000,160462.000,1.000
192381.469,189572.578,205129.031,198240.484,192761.094,184241.234,192364.047,182282.422,-0.002,1.000,0.172,-1.709,-0.763,0.061,80.000,160463.000,1.000
192407.578,189600.828,205158.359,198266.594,192780.141,184264.219,192388.266,182298.063,-0.001,0.999,0.172,-1.648,-0.702,0.092,80.000,160464.000,1.000
192426.531,189605.922,205158.984,198269.281,192789.266,184263.953,192401.234,182324.172,-0.002,0.999,0.170,-1.648,-0.702,0.092,80.000,160465.000,1.000
192412.766,189575.078,205124.922,198241.750,192772.000,184230.156,192375.297,182324.000,-0.002,0.999,0.168,-1.648,-0.732,0.122,80.000,160466.000,1.000
192384.953,189551.922,205104.000,198219.391,192746.797,184202.438,192340.172,182285.906,-0.002,0.999,0.171,-1.617,-0.824,0.061,80.000,160467.000,1.000
192376.109,189560.141,205118.031,198224.313,192747.953,184226.484,192353.578,182268.297,0.000,0.998,0.170,-1.587,-0.702,0.061,80.000,160468.000,1.000
192398.734,189594.297,205149.781,198252.297,192774.422,184270.297,192401.141,182295.734,0.000,0.999,0.170,-1.526,-0.793,0.031,80.000,160469.000,1.000
192416.438,189593.578,205152.094,198260.703,192781.125,184272.969,192406.063,182324.000,0.000,1.000,0.171,-1.556,-0.702,0.000,80.000,160470.000,1.000
192399.891,189560.422,205116.156,198231.016,192754.563,184226.125,192367.969,182319.703,0.000,1.000,0.171,-1.526,-0.641,-0.183,80.000,160471.000,1.000
192375.125,189540.922,205099.797,198209.828,192729.094,184209.500,192342.219,182281.703,0.001,1.000,0.168,-1.526,-0.641,-0.153,80.000,160472.000,1.000
192373.344,189553.000,205118.031,198222.609,192727.391,184225.234,192340.438,182257.656,0.001,1.000,0.171,-1.526,-0.580,-0.275,80.000,160473.000,1.000
192400.969,189585.266,205152.016,198260.703,192759.578,184267.969,192383.438,182290.734,0.002,1.001,0.170,-1.526,-0.549,-0.275,80.000,160474.000,1.000
192419.922,189591.344,205154.250,198271.250,192776.297,184268.953,192399.094,182331.328,0.001,1.001,0.169,-1.495,-0.519,-0.397,80.000,160475.000,1.000
192396.500,189556.750,205110.703,198237.547,192755.547,184222.281,192363.594,182329.453,0.003,1.001,0.168,-1.404,-0.519,-0.427,80.000,160476.000,1.000
192363.859,189533.063,205089.688,198218.766,192740.078,184204.047,192345.984,182295.922,0.005,1.000,0.167,-1.465,-0.427,-0.397,80.000,160477.000,1.000
192362.969,189552.281,205116.063,198238.875,192755.906,184230.063,192366.547,182289.297,0.005,0.999,0.170,-1.434,-0.397,-0.366,80.000,160478.000,1.000
192385.047,189587.594,205152.188,198269.188,192789.797,184279.594,192416.344,182317.469,0.004,0.999,0.171,-1.434,-0.153,-0.336,80.000,160479.000,1.000
192395.781,189586.969,205149.063,198265.703,192796.141,184275.750,192416.875,182340.797,0.004,1.001,0.169,-1.312,-0.092,-0.336,80.000,160480.000,1.000
192371.906,189544.141,205100.953,198227.266,192762.609,184213.078,192361.453,182323.547,0.003,1.002,0.169,-1.404,0.031,-0.427,80.000,160481.000,1.000
192354.734,189531.531,205091.297,198217.969,192748.125,184195.547,192342.500,182292.438,0.004,1.000,0.168,-1.373,0.092,-0.275,80.000,160482.000,1.000
192366.813,189562.656,205126.625,198242.641,192769.141,184249.906,192382.188,182294.844,0.003,1.001,0.170,-1.282,0.092,-0.305,80.000,160483.000,1.000
192388.000,189589.828,205152.016,198259.531,192782.734,184277.984,192397.828,182304.141,0.002,1.001,0.167,-1.251,0.214,-0.214,80.000,160484.000,1.000
192404.625,189596.984,205150.313,198262.047,192787.203,184273.875,192397.563,182320.422,0.000,1.000,0.169,-1.282,0.336,-0.244,80.000,160485.000,1.000
192380.844,189556.578,205105.516,198226.547,192760.656,184228.719,192364.578,182315.859,0.001,1.002,0.166,-1.343,0.275,-0.305,80.000,160486.000,1.000
192349.469,189530.828,205082.719,198202.578,192739.188,184218.797,192348.750,182287.422,-0.001,1.002,0.168,-1.251,0.366,-0.397,80.000,160487.000,1.000
192350.094,189546.281,205105.422,198221.359,192749.297,184251.344,192374.234,182284.391,-0.001,1.003,0.166,-1.312,0.305,-0.397,80.000,160488.000,1.000
192371.734,189575.438,205135.734,198251.844,192770.578,184272.969,192395.156,182306.016,-0.001,1.005,0.168,-1.282,0.275,-0.519,80.000,160489.000,1.000
192391.938,189587.328,205141.547,198263.734,192786.844,184285.141,192405.875,182339.547,-0.003,1.005,0.170,-1.404,0.305,-0.580,80.000,160490.000,1.000
192373.250,189552.281,205099.969,198221.453,192761.813,184243.656,192373.781,182327.922,-0.003,1.004,0.168,-1.526,0.305,-0.702,80.000,160491.000,1.000
192351.516,189534.938,205084.156,198204.016,192744.563,184231.219,192356.797,182298.422,-0.004,1.004,0.169,-1.404,0.214,-0.732,80.000,160492.000,1.000
192358.141,189559.609,205112.406,198229.938,192756.359,184255.188,192377.266,182298.516,-0.004,1.004,0.168,-1.373,0.275,-0.641,80.000,160493.000,1.000
192379.500,189582.047,205138.516,198251.406,192769.141,184270.469,192391.391,182310.313,-0.004,1.004,0.166,-1.312,0.275,-0.671,80.000,160494.000,1.000
192393.453,189581.344,205135.016,198248.719,192765.563,184253.219,192373.516,182319.516,-0.003,1.006,0.169,-1.343,0.092,-0.671,80.000,160495.000,1.000
192378.703,189545.578,205099.609,198221.188,192742.672,184212.984,192343.203,182315.500,-0.005,1.007,0.169,-1.404,0.031,-0.671,80.000,160496.000,1.000
192351.875,189524.469,205081.203,198198.828,192722.828,184199.219,192333.281,182282.234,-0.006,1.005,0.166,-1.434,-0.061,-0.763,80.000,160497.000,1.000
192358.141,189549.422,205111.516,198221.719,192738.031,184234.359,192357.609,182279.641,-0.003,1.004,0.168,-1.556,-0.214,-0.763,80.000,160498.000,1.000
192382.094,189580.438,205145.484,198253.813,192764.219,184269.219,192385.859,182303.344,-0.003,1.004,0.167,-1.617,-0.153,-0.702,80.000,160499.000,1.000
192408.563,189592.781,205154.328,198271.250,192784.156,184276.641,192402.938,182336.328,-0.003,1.003,0.162,-1.434,-0.244,-0.641,80.000,160500.000,1.000
192385.234,189553.359,205108.203,198233.078,192753.578,184219.953,192355.188,182319.875,-0.001,1.001,0.164,-1.343,-0.275,-0.427,80.000,160501.000,1.000
192363.063,189543.516,205095.953,198219.844,192741.250,184213.609,192345.078,182291.813,-0.002,1.002,0.166,-1.343,-0.336,-0.458,80.000,160502.000,1.000
192358.672,189552.641,205111.953,198229.578,192741.609,184224.250,192344.188,182273.203,-0.002,1.001,0.164,-1.282,-0.397,-0.519,80.000,160503.000,1.000
192378.703,189580.266,205139.500,198256.313,192765.828,184264.297,192386.219,182297.969,-0.004,1.001,0.163,-1.282,-0.458,-0.549,80.000,160504.000,1.000
192398.547,189593.141,205141.813,198261.406,192777.906,184271.641,192400.516,182325.953,-0.005,1.000,0.165,-1.251,-0.366,-0.488,80.000,160505.000,1.000
192384.953,189562.031,205101.938,198227.531,192749.828,184211.109,192348.125,182316.922,-0.004,0.998,0.164,-1.129,-0.366,-0.427,80.000,160506.000,1.000
192350.625,189531.719,205074.500,198194.625,192724.438,184195.641,192333.734,182283.406,-0.005,1.000,0.164,-1.007,-0.549,-0.397,80.000,160507.000,1.000
192357.781,189556.578,205106.953,198220.906,192743.922,184246.250,192377.547,182285.641,-0.005,1.000,0.165,-0.946,-0.641,-0.427,80.000,160508.000,1.000
192377.891,189578.391,205134.031,198242.453,192759.750,184268.781,192391.672,182288.594,-0.005,1.000,0.165,-0.916,-0.519,-0.427,80.000,160509.000,1.000
192390.953,189584.906,205133.141,198244.156,192765.828,184260.094,192379.953,182308.344,-0.004,1.001,0.168,-0.946,-0.519,-0.488,80.000,160510.000,1.000
192382.547,189559.078,205105.344,198232.172,192754.750,184226.656,192355.719,182317.016,-0.006,1.000,0.163,-0.885,-0.549,-0.641,80.000,160511.000,1.000
192354.391,189533.500,205085.047,198211.172,192736.234,184211.203,192347.141,182291.719,-0.005,1.004,0.165,-0.885,-0.641,-0.641,80.000,160512.000,1.000
192353.047,189550.313,205106.688,198222.969,192747.063,184249.281,192376.016,182288.500,-0.005,1.004,0.164,-0.824,-0.763,-0.702,80.000,160513.000,1.000
192366.094,189572.484,205129.750,198238.875,192760.734,184269.047,192390.328,182293.766,-0.005,1.002,0.163,-0.854,-0.763,-0.763,80.000,160514.000,1.000
192377.813,189574.359,205128.047,198246.578,192769.234,184257.422,192395.875,182320.859,-0.005,1.003,0.164,-0.854,-0.793,-0.824,80.000,160515.000,1.000
192364.750,189548.438,205092.734,198226.906,192752.953,184217.547,192364.313,182325.250,-0.006,1.005,0.165,-0.854,-0.885,-0.793,80.000,160516.000,1.000
192333.188,189527.250,205072.438,198201.156,192734.000,184207.703,192353.938,182293.141,-0.003,1.004,0.165,-0.946,-0.916,-0.763,80.000,160517.000,1.000
192334.984,189547.547,205098.547,198218.938,192747.688,184245.609,192384.422,182290.469,-0.003,1.004,0.167,-0.885,-0.824,-0.763,80.000,160518.000,1.000
192360.375,189572.125,205127.781,198244.250,192763.953,184266.984,192397.031,182303.250,-0.004,1.004,0.167,-0.977,-0.854,-0.763,80.000,160519.000,1.000
192378.344,189575.609,205126.797,198247.469,192766.016,184254.922,192388.266,182319.438,-0.001,1.004,0.162,-1.007,-0.854,-0.793,80.000,160520.000,1.000
192363.141,189545.313,205088.703,198216.172,192742.234,184209.500,192343.563,182311.297,0.000,1.005,0.165,-0.916,-0.854,-0.763,80.000,160521.000,1.000
192335.250,189520.719,205067.438,198190.688,192718.094,184192.328,192317.641,182273.031,-0.001,1.006,0.166,-1.068,-0.793,-0.702,80.000,160522.000,1.000
192341.781,189539.938,205095.063,198213.578,192733.297,184229.344,192356.000,182272.938,0.000,1.005,0.161,-1.129,-0.824,-0.641,80.000,160523.000,1.000
192356.703,189563.813,205119.641,198233.516,192751.438,184264.922,192388.531,182290.641,-0.001,1.005,0.166,-1.099,-0.732,-0.641,80.000,160524.000,1.000
192377.359,189576.594,205125.016,198244.156,192765.297,184270.109,192397.656,182321.313,-0.003,1.006,0.164,-1.251,-0.732,-0.610,80.000,160525.000,1.000
192370.391,189553.266,205095.422,198225.922,192751.438,184232.031,192368.594,182329.719,-0.003,1.007,0.162,-1.221,-0.732,-0.549,80.000,160526.000,1.000
192341.594,189531.531,205075.297,198199.453,192730.703,184214.234,192349.828,182296.984,-0.004,1.004,0.163,-1.251,-0.671,-0.519,80.000,160527.000,1.000
192344.281,189551.391,205101.313,198215.547,192736.859,184233.188,192355.188,182274.375,-0.002,1.003,0.165,-1.373,-0.702,-0.488,80.000,160528.000,1.000
192375.297,189585.813,205141.547,198252.563,192766.734,184267.172,192391.578,182297.078,-0.002,1.004,0.166,-1.465,-0.610,-0.458,80.000,160529.000,1.000
192396.047,189594.922,205147.531,198258.016,192780.141,184273.422,192401.500,182326.578,-0.003,1.003,0.164,-1.556,-0.580,-0.488,80.000,160530.000,1.000
192378.875,189555.234,205105.703,198220.547,192753.859,184224.781,192359.484,182314.156,-0.004,1.004,0.165,-1.648,-0.580,-0.549,80.000,160531.000,1.000
192355.453,189534.219,205086.563,198200.891,192735.891,184210.391,192347.953,182282.063,-0.004,1.004,0.166,-1.678,-0.641,-0.519,80.000,160532.000,1.000
192364.578,189559.078,205118.484,198227.344,192756.719,184253.938,192387.281,182286.797,-0.005,1.004,0.164,-1.740,-0.671,-0.519,80.000,160533.000,1.000
192387.641,189588.672,205151.109,198255.156,192775.766,184277.531,192397.391,182305.219,-0.005,1.004,0.165,-1.740,-0.610,-0.519,80.000,160534.000,1.000
192401.406,189591.625,205148.875,198257.125,192777.016,184265.375,192379.781,182317.281,-0.003,1.005,0.165,-1.862,-0.641,-0.458,80.000,160535.000,1.000
192388.000,189556.750,205112.219,198231.641,192760.734,184230.781,192362.781,182319.703,-0.001,1.004,0.166,-1.923,-0.641,-0.488,80.000,160536.000,1.000
192369.313,189542.172,205100.156,198220.641,192748.047,184219.594,192350.266,182295.375,-0.002,1.002,0.166,-1.923,-0.580,-0.458,80.000,160537.000,1.000
192360.734,189550.672,205116.422,198231.906,192750.453,184235.250,192360.109,182286.000,-0.002,1.001,0.160,-1.984,-0.488,-0.488,80.000,160538.000,1.000
192380.047,189580.703,205145.922,198260.250,192775.844,184273.953,192396.766,182312.453,-0.002,1.000,0.163,-1.953,-0.488,-0.488,80.000,160539.000,1.000
192398.813,189591.703,205147.813,198269.641,192788.188,184276.547,192409.547,182343.844,-0.003,1.003,0.165,-1.892,-0.519,-0.458,80.000,160540.000,1.000
192383.531,189557.641,205110.250,198242.094,192767.359,184234.531,192375.125,182341.516,-0.001,1.000,0.164,-1.831,-0.366,-0.458,80.000,160541.000,1.000
192352.422,189529.484,205084.500,198210.891,192736.688,184198.953,192337.484,182298.953,-0.003,1.000,0.165,-1.740,-0.397,-0.549,80.000,160542.000,1.000
192356.891,189549.594,205112.672,198233.875,192750.547,184236.672,192367.969,182293.859,-0.002,1.000,0.166,-1.770,-0.427,-0.488,80.000,160543.000,1.000
192387.547,189584.641,205152.281,198273.031,192783.625,184285.141,192408.922,182321.844,-0.001,1.000,0.165,-1.862,-0.427,-0.519,80.000,160544.000,1.000
192409.453,189597.703,205157.281,198275.094,192793.906,184282.719,192408.750,182343.391,0.000,1.003,0.167,-1.801,-0.397,-0.427,80.000,160545.000,1.000
192391.844,189565.516,205115.531,198239.234,192767.172,184231.844,192367.266,182333.297,-0.002,1.002,0.164,-1.862,-0.366,-0.549,80.000,160546.000,1.000
192365.109,189537.797,205096.047,198220.906,192746.969,184218.797,192352.422,182302.453,-0.002,1.002,0.163,-1.801,-0.305,-0.488,80.000,160547.000,1.000
192368.781,189554.063,205122.688,198240.219,192761.625,184255.719,192382.188,182298.063,-0.002,1.000,0.167,-1.709,-0.275,-0.458,80.000,160548.000,1.000
192391.672,189589.469,205155.766,198263.297,192788.813,184300.953,192424.031,182319.516,-0.004,1.001,0.163,-1.740,-0.244,-0.519,80.000,160549.000,1.000
192410.000,189597.875,205159.250,198271.156,192796.406,184288.359,192416.609,182346.969,-0.003,1.001,0.162,-1.740,-0.275,-0.427,80.000,160550.000,1.000
192396.938,189566.859,205122.766,198242.734,192770.578,184234.172,192364.750,182333.828,-0.002,1.004,0.164,-1.678,-0.214,-0.519,80.000,160551.000,1.000
192369.047,189537.703,205099.703,198218.047,192749.031,184219.594,192352.953,182298.156,-0.002,1.004,0.164,-1.740,-0.153,-0.519,80.000,160552.000,1.000
192369.500,189550.578,205122.422,198235.313,192755.016,184233.906,192365.922,182286.625,-0.003,1.004,0.162,-1.801,-0.153,-0.458,80.000,160553.000,1.000
192399.438,189591.703,205164.266,198271.344,192787.734,184281.016,192407.672,182315.406,-0.003,1.003,0.163,-1.801,-0.153,-0.488,80.000,160554.000,1.000
192413.750,189600.641,205167.125,198272.953,192798.469,184289.781,192413.844,182339.734,-0.003,1.003,0.163,-1.862,-0.122,-0.519,80.000,160555.000,1.000
192397.828,189571.406,205130.906,198246.844,192781.031,184250.531,192386.484,182340.984,-0.005,1.003,0.166,-1.953,-0.183,-0.488,80.000,160556.000,1.000
192363.953,189542.984,205105.609,198225.203,192756.266,184221.391,192365.656,182312.547,-0.005,1.001,0.165,-1.953,-0.244,-0.458,80.000,160557.000,1.000
192360.016,189559.875,205127.516,198242.094,192760.109,184236.141,192368.781,182299.313,-0.004,1.002,0.167,-2.045,-0.275,-0.488,80.000,160558.000,1.000
192385.594,189589.563,205160.141,198270.625,192781.844,184266.719,192386.750,182307.094,-0.004,1.005,0.166,-2.075,-0.183,-0.458,80.000,160559.000,1.000
192401.406,189595.375,205160.766,198271.063,192790.422,184271.719,192397.031,182331.688,-0.005,1.003,0.162,-2.136,-0.214,-0.488,80.000,160560.000,1.000
192381.297,189557.203,205116.422,198236.641,192759.484,184221.125,192350.891,182320.328,-0.006,1.004,0.160,-2.197,-0.244,-0.519,80.000,160561.000,1.000
192358.578,189535.563,205098.188,198222.516,192738.922,184206.453,192329.969,182291.625,-0.005,1.003,0.162,-2.197,-0.183,-0.580,80.000,160562.000,1.000
192365.375,189559.078,205125.453,198241.297,192752.781,184241.328,192360.828,182288.766,-0.005,1.003,0.165,-2.228,-0.305,-0.488,80.000,160563.000,1.000
192389.609,189593.406,205158.266,198263.203,192779.063,184287.016,192408.469,182310.141,-0.005,1.002,0.165,-2.258,-0.305,-0.519,80.000,160564.000,1.000
192409.375,189606.547,205163.719,198272.953,192794.797,184303.188,192430.375,182341.969,-0.006,1.004,0.165,-2.319,-0.244,-0.519,80.000,160565.000,1.000
192399.266,189576.156,205125.094,198242.906,192766.906,184246.875,192366.094,182328.188,-0.006,1.001,0.166,-2.319,-0.305,-0.427,80.000,160566.000,1.000
192372.797,189558.984,205102.297,198211.250,192741.250,184225.500,192338.109,182283.766,-0.005,1.001,0.166,-2.350,-0.366,-0.397,80.000,160567.000,1.000
192367.703,189565.953,205120.531,198220.469,192745.188,184244.000,192356.078,182271.688,-0.005,1.004,0.168,-2.411,-0.366,-0.488,80.000,160568.000,1.000
192399.000,189604.313,205163.719,198260.250,192779.250,184295.781,192404.547,182303.422,-0.006,1.004,0.165,-2.411,-0.397,-0.488,80.000,160569.000,1.000
192418.484,189613.516,205168.375,198271.422,192788.641,184287.375,192407.406,182331.500,-0.004,1.004,0.165,-2.533,-0.458,-0.458,80.000,160570.000,1.000
192400.969,189575.250,205124.922,198235.031,192761.813,184239.094,192363.766,182319.797,-0.005,1.002,0.168,-2.441,-0.488,-0.488,80.000,160571.000,1.000
192368.328,189545.844,205098.359,198207.766,192740.078,184226.313,192354.109,182288.234,-0.005,1.003,0.166,-2.563,-0.427,-0.397,80.000,160572.000,1.000
192359.656,189551.563,205113.563,198220.906,192742.859,184245.531,192369.500,182275.719,-0.003,1.002,0.167,-2.472,-0.519,-0.397,80.000,160573.000,1.000
192381.391,189578.391,205143.250,198252.031,192762.609,184270.734,192385.766,182292.516,-0.006,1.000,0.169,-2.350,-0.427,-0.488,80.000,160574.000,1.000
192400.156,189586.344,205146.906,198260.703,192772.984,184268.328,192389.078,182319.516,-0.005,1.000,0.169,-2.289,-0.488,-0.366,80.000,160575.000,1.000
192384.953,189551.656,205106.953,198231.375,192751.000,184224.063,192355.719,182318.094,-0.004,0.999,0.170,-2.197,-0.488,-0.427,80.000,160576.000,1.000
192352.328,189524.734,205080.031,198202.859,192724.891,184201.891,192332.297,182278.750,-0.005,1.002,0.168,-2.289,-0.458,-0.305,80.000,160577.000,1.000
